# Averages = 100
# wavelength [µm]	intensity
446.8250 14.33578
447.0374 36746.70328
447.2498 1230.87018
447.4621 1219.77019
447.6745 1223.23125
447.8868 1236.99360
448.0992 1242.25688
448.3115 1231.30025
448.5238 1251.71850
448.7360 1234.26981
448.9483 1245.63603
449.1606 1240.92570
449.3728 1264.98934
449.5850 1233.67590
449.7972 1245.39028
450.0094 1233.57350
450.2216 1252.51721
450.4337 1246.90577
450.6459 1660.84122
450.8580 1983.90829
451.0701 2009.32358
451.2822 2027.63242
451.4943 2020.58741
451.7064 2010.81860
451.9184 1998.32599
452.1305 2059.76505
452.3425 2164.15002
452.5545 2099.02461
452.7665 2081.94455
452.9785 2202.95903
453.1905 2228.94775
453.4024 2161.46718
453.6143 2250.38998
453.8263 2232.90033
454.0382 2344.73990
454.2501 2210.37267
454.4619 2194.60331
454.6738 2320.47147
454.8856 2382.97548
455.0975 2239.51527
455.3093 2255.81710
455.5211 2314.24565
455.7329 2285.24641
455.9446 2325.79619
456.1564 2328.92958
456.3681 2384.61385
456.5798 2450.49701
456.7916 2386.02695
457.0033 2379.04338
457.2149 2344.49415
457.4266 2381.11183
457.6382 2438.92598
457.8499 2398.47860
458.0615 2512.18183
458.2731 2428.15367
458.4847 2505.60785
458.6963 2523.85525
458.9078 2548.08272
459.1194 2696.86765
459.3309 2716.97870
459.5424 2558.30208
459.7539 2464.15696
459.9654 2520.04603
460.1769 2591.68397
460.3883 2574.64487
460.5998 2452.66785
460.8112 2423.05423
461.0226 2498.31708
461.2340 2598.21699
461.4454 2549.96685
461.6567 2496.90398
461.8681 2476.15806
462.0794 2449.00199
462.2907 2545.50228
462.5020 2638.11143
462.7133 2717.16302
462.9246 2778.92976
463.1359 2633.07342
463.3471 2408.34981
463.5583 2462.64146
463.7696 2780.42477
463.9808 2651.56658
464.1919 2554.10375
464.4031 2555.02533
464.6143 2690.70326
464.8254 2529.44620
465.0365 2516.29824
465.2476 2619.45443
465.4587 2657.40329
465.6698 2515.25378
465.8809 2485.74255
466.0919 2500.11929
466.3030 2661.06915
466.5140 2635.71530
466.7250 2528.79085
466.9360 2583.04155
467.1469 2529.97867
467.3579 2424.22157
467.5688 2423.66862
467.7798 2525.82130
467.9907 2696.27374
468.2016 2518.18237
468.4125 2507.61486
468.6233 2418.09814
468.8342 2433.92894
469.0450 2671.34996
469.2559 2676.44940
469.4667 2647.75736
469.6775 2454.32671
469.8882 2488.32299
470.0990 2525.88274
470.3098 2678.59977
470.5205 2546.69010
470.7312 2684.51840
470.9419 2774.15799
471.1526 2624.90203
471.3633 2504.72722
471.5739 2549.29102
471.7846 2523.83477
471.9952 2378.73618
472.2058 2437.51289
472.4164 2415.43578
472.6270 2463.31729
472.8376 2498.13276
473.0481 2643.16991
473.2587 2685.99293
473.4692 2615.58377
473.6797 2552.64969
473.8902 2476.34237
474.1007 2405.15498
474.3111 2397.67989
474.5216 2357.23251
474.7320 2459.97910
474.9424 2586.80981
475.1528 2638.93061
475.3632 2476.79293
475.5736 2476.79293
475.7840 2439.78613
475.9943 2459.26231
476.2046 2489.34698
476.4149 2512.09991
476.6252 2592.64652
476.8355 2718.78091
477.0458 2738.64621
477.2561 2766.35523
477.4663 2660.94628
477.6765 2597.02917
477.8867 2555.86500
478.0969 2577.36867
478.3071 2587.91571
478.5173 2538.21151
478.7274 2611.97934
478.9375 2757.63088
479.1477 2750.74971
479.3578 2747.49344
479.5679 2831.31680
479.7779 2695.39311
479.9880 2650.33780
480.1980 2713.59955
480.4081 2786.75300
480.6181 2718.35084
480.8281 2622.38303
481.0381 2750.81115
481.2480 2778.64304
481.4580 2705.38720
481.6679 2706.10399
481.8778 2659.65606
482.0877 2726.19456
482.2976 2752.34712
482.5075 2798.16018
482.7174 2767.58401
482.9272 2764.57350
483.1371 2708.31579
483.3469 2743.62278
483.5567 2819.04946
483.7665 2834.36827
483.9762 2841.63856
484.1860 2809.64929
484.3957 2842.31439
484.6055 2788.32993
484.8152 2833.93820
485.0249 2864.35053
485.2346 2836.64152
485.4442 2854.60220
485.6539 2913.48130
485.8635 2916.16414
486.0732 2847.72103
486.2828 2883.82672
486.4924 2897.22043
486.7019 2866.64426
486.9115 2915.71359
487.1210 2950.05802
487.3306 2958.20894
487.5401 2992.65578
487.7496 2992.00043
487.9591 3057.18727
488.1686 3058.23173
488.3780 3008.65041
488.5875 3033.00076
488.7969 3048.54484
489.0063 3029.84689
489.2157 3090.85588
489.4251 3071.05202
489.6345 3080.08356
489.8438 3092.20754
490.0531 3077.50312
490.2625 3115.59534
490.4718 3092.78097
490.6811 3128.96857
490.8903 3173.55285
491.0996 3190.85819
491.3089 3183.36263
491.5181 3212.19803
491.7273 3227.59875
491.9365 3217.52274
492.1457 3256.96662
492.3549 3262.68045
492.5640 3256.33175
492.7732 3295.14076
492.9823 3304.11086
493.1914 3365.03793
493.4005 3361.67926
493.6096 3338.61914
493.8187 3334.37984
494.0277 3410.54380
494.2368 3397.96927
494.4458 3434.81223
494.6548 3464.09818
494.8638 3510.38228
495.0728 3462.66460
495.2817 3496.10793
495.4907 3465.24504
495.6996 3525.51676
495.9085 3521.54370
496.1174 3578.21100
496.3263 3561.49957
496.5352 3603.31910
496.7440 3613.59990
496.9529 3648.57921
497.1617 3660.47790
497.3705 3654.57975
497.5793 3722.36752
497.7881 3683.33324
497.9969 3743.19536
498.2056 3759.88631
498.4144 3780.50935
498.6231 3796.44255
498.8318 3825.48275
499.0405 3849.60782
499.2492 3803.44660
499.4578 3892.79948
499.6665 3891.73454
499.8751 3948.44279
500.0837 3968.84056
500.2923 3969.39351
500.5009 3964.47839
500.7095 4015.08369
500.9180 4035.01043
501.1266 4081.58124
501.3351 4099.80816
501.5436 4135.42234
501.7521 4122.37678
501.9606 4175.37821
502.1691 4185.22894
502.3775 4195.42782
502.5860 4241.99863
502.7944 4250.64106
503.0028 4315.17255
503.2112 4338.72420
503.4196 4325.08472
503.6279 4402.88706
503.8363 4369.56660
504.0446 4455.56081
504.2529 4476.90065
504.4612 4509.50431
504.6695 4530.80318
504.8778 4535.37015
505.0860 4565.80297
505.2943 4568.21957
505.5025 4654.48002
505.7107 4656.17983
505.9189 4723.55800
506.1271 4741.90780
506.3353 4769.96497
506.5434 4758.31203
506.7516 4834.92654
506.9597 4837.42507
507.1678 4871.01175
507.3759 4910.92666
507.5840 4906.62593
507.7920 4932.36890
508.0001 4944.59527
508.2081 5077.18077
508.4161 5022.23377
508.6241 5099.52411
508.8321 5091.29127
509.0401 5152.56650
509.2480 5190.04432
509.4560 5161.92571
509.6639 5244.74557
509.8718 5266.84315
510.0797 5294.01970
510.2876 5288.28539
510.4955 5443.64430
510.7033 5461.78930
510.9112 5512.64036
511.1190 5521.61047
511.3268 5490.33798
511.5346 5594.66151
511.7424 5603.71353
511.9501 5671.64466
512.1579 5710.88374
512.3656 5747.11230
512.5733 5738.12172
512.7810 5850.51425
512.9887 5892.12897
513.1964 5927.06732
513.4040 5928.43946
513.6117 5974.00676
513.8193 6009.80526
514.0269 6044.78456
514.2345 6121.80867
514.4421 6130.47157
514.6497 6168.56379
514.8572 6226.35747
515.0647 6226.84898
515.2723 6324.78285
515.4798 6342.02675
515.6873 6420.99642
515.8947 6410.26507
516.1022 6446.73939
516.3097 6472.31852
516.5171 6577.87083
516.7245 6569.41272
516.9319 6623.66341
517.1393 6675.08790
517.3467 6749.40869
517.5540 6767.08266
517.7614 6835.46434
517.9687 6789.87655
518.1760 6840.23610
518.3833 6941.32384
518.5906 6940.81185
518.7978 7056.48112
519.0051 7042.96453
519.2123 7151.05632
519.4196 7093.85655
519.6268 7183.37327
519.8340 7220.09335
520.0411 7298.16192
520.2483 7373.85484
520.4554 7379.79395
520.6626 7447.76603
520.8697 7468.90107
521.0768 7586.16776
521.2839 7616.17050
521.4909 7665.30128
521.6980 7792.43917
521.9050 7825.59579
522.1121 7866.14557
522.3191 7896.31215
522.5261 7945.87299
522.7331 8034.22237
522.9400 8146.24626
523.1470 8150.95658
523.3539 8184.62519
523.5608 8247.88695
523.7677 8261.36258
523.9746 8315.59279
524.1815 8413.85433
524.3884 8463.94765
524.5952 8425.34344
524.8020 8588.70990
525.0089 8509.94503
525.2157 8626.02390
525.4225 8670.09618
525.6292 8682.50687
525.8360 8746.60830
526.0427 8829.55103
526.2494 8873.78715
526.4562 8960.94870
526.6629 8909.50373
526.8695 8964.14354
527.0762 9080.30432
527.2829 9103.65117
527.4895 9275.10711
527.6961 9340.17108
527.9027 9379.18488
528.1093 9393.62306
528.3159 9426.92303
528.5224 9445.23187
528.7290 9630.55257
528.9355 9576.46571
529.1420 9767.86887
529.3485 9664.48741
529.5550 9826.44078
529.7615 9783.49487
529.9680 9915.69126
530.1744 9961.48384
530.3808 10014.38287
530.5872 9955.33993
530.7936 10064.80386
531.0000 10117.08850
531.2064 10151.80157
531.4127 10195.05467
531.6191 10285.49297
531.8254 10293.15238
532.0317 10369.11154
532.2380 10334.56230
532.4443 10509.13116
532.6505 10355.79974
532.8568 10545.70788
533.0630 10661.58195
533.2692 10627.95431
533.4754 10677.20796
533.6816 10825.17370
533.8878 10784.66488
534.0939 10914.87473
534.3001 10879.85446
534.5062 10932.05719
534.7123 10944.03780
534.9184 10964.59941
535.1245 10979.03759
535.3306 11024.54346
535.5366 11107.40427
535.7426 11178.61215
535.9487 11320.35206
536.1547 11181.04923
536.3607 11243.04124
536.5666 11253.79308
536.7726 11301.96130
536.9785 11358.91531
537.1845 11484.49676
537.3904 11419.51471
537.5963 11507.14729
537.8022 11526.72587
538.0080 11617.10273
538.2139 11630.74221
538.4197 11703.44510
538.6256 11657.12004
538.8314 11728.65559
539.0372 11724.60061
539.2430 11869.39200
539.4487 11642.45659
539.6545 11898.26836
539.8602 11784.29890
540.0659 11845.24645
540.2716 12039.66013
540.4773 11960.95669
540.6830 12112.21966
540.8887 12065.93557
541.0943 11982.60372
541.2999 11980.90390
541.5056 11997.94300
541.7112 12063.53944
541.9167 11977.93435
542.1223 12111.19568
542.3279 12088.91378
542.5334 12097.14661
542.7389 12202.80132
542.9444 12253.11991
543.1499 12264.99813
543.3554 12175.52237
543.5609 12270.09757
543.7663 12340.38386
543.9718 12146.48218
544.1772 12282.26250
544.3826 12196.90317
544.5880 12379.86870
544.7934 12334.19899
544.9987 12309.23425
545.2041 12447.55406
545.4094 12319.57650
545.6147 12302.82411
545.8200 12378.37368
546.0253 12342.06319
546.2306 12400.98325
546.4358 12267.64001
546.6411 12370.73475
546.8463 12286.84995
547.0515 12412.45188
547.2567 12341.94031
547.4619 12383.06353
547.6670 12413.57826
547.8722 12342.55470
548.0773 12473.82950
548.2824 12322.01358
548.4876 12282.16011
548.6926 12375.36316
548.8977 12378.14840
549.1028 12418.69818
549.3078 12322.58701
549.5129 12292.89146
549.7179 12262.80680
549.9229 12256.04850
550.1279 12170.34101
550.3328 12176.17772
550.5378 11968.18602
550.7427 12062.47450
550.9476 12022.04760
551.1526 11811.70072
551.3575 11951.22884
551.5623 11872.73019
551.7672 11705.98458
551.9720 11721.07811
552.1769 11644.62743
552.3817 11701.72480
552.5865 11516.81370
552.7913 11496.43642
552.9961 11382.03688
553.2008 11352.62805
553.4056 11408.39424
553.6103 11271.95856
553.8150 11341.50758
554.0197 11280.04804
554.2244 11168.88429
554.4291 11057.20856
554.6337 11094.64543
554.8384 11013.19771
555.0430 10898.40906
555.2476 10787.51155
555.4522 10677.71995
555.6568 10677.96570
555.8613 10618.39029
556.0659 10644.23566
556.2704 10435.05613
556.4750 10446.54524
556.6795 10383.65212
556.8839 10224.97550
557.0884 10240.45814
557.2929 10165.19529
557.4973 10039.36809
557.7018 9979.99748
557.9062 9909.69071
558.1106 9816.40573
558.3150 9690.94717
558.5193 9719.06578
558.7237 9582.73250
558.9280 9471.63019
559.1323 9385.98414
559.3367 9315.67737
559.5410 9237.60880
559.7452 9053.10730
559.9495 9111.39249
560.1537 9007.90863
560.3580 8885.21482
560.5622 8922.32401
560.7664 8832.82778
560.9706 8703.10944
561.1748 8678.32902
561.3789 8613.71560
561.5831 8532.59556
561.7872 8439.82258
561.9913 8408.91873
562.1954 8306.09022
562.3995 8271.39763
562.6036 8167.34033
562.8076 8034.71388
563.0117 8047.45224
563.2157 7928.67006
563.4197 7899.42506
563.6237 7826.57881
563.8277 7694.40291
564.0316 7577.23862
564.2356 7560.99823
564.4395 7495.89330
564.6434 7431.32085
564.8473 7408.85463
565.0512 7309.30287
565.2551 7260.70457
565.4590 7238.66842
565.6628 7165.10539
565.8666 7078.23055
566.0705 7002.57859
566.2743 6932.55854
566.4780 6856.08738
566.6818 6795.75422
566.8856 6792.12932
567.0893 6699.06962
567.2930 6631.75289
567.4967 6560.19686
567.7004 6529.47733
567.9041 6516.86184
568.1078 6436.90914
568.3114 6375.71583
568.5151 6367.11436
568.7187 6215.83091
568.9223 6229.71614
569.1259 6196.47761
569.3295 6200.86026
569.5330 6140.67046
569.7366 6088.77493
569.9401 6075.99561
570.1436 6042.59324
570.3471 6049.10578
570.5506 5991.92649
570.7541 5936.44702
570.9575 5936.01694
571.1609 5841.29839
571.3644 5847.36038
571.5678 5832.53308
571.7712 5799.25359
571.9746 5767.30528
572.1779 5702.71234
572.3813 5680.79908
572.5846 5710.31031
572.7879 5692.63634
572.9912 5693.96752
573.1945 5665.84890
573.3978 5609.46832
573.6010 5628.53491
573.8043 5652.57807
574.0075 5585.83477
574.2107 5588.10801
574.4139 5546.32945
574.6171 5543.11414
574.8203 5506.10734
575.0234 5541.66008
575.2266 5487.14315
575.4297 5477.29242
575.6328 5475.85884
575.8359 5475.24445
576.0390 5394.47257
576.2420 5439.34356
576.4451 5388.69729
576.6481 5439.48692
576.8512 5534.08260
577.0542 5437.41847
577.2571 5518.25180
577.4601 5501.02838
577.6631 5481.14260
577.8660 5471.55811
578.0689 5440.51090
578.2719 5455.99355
578.4748 5508.40107
578.6776 5499.63576
578.8805 5536.88831
579.0834 5520.99608
579.2862 5586.06004
579.4890 5637.42310
579.6918 5705.80477
579.8946 5634.22827
580.0974 5702.54850
580.3002 5736.09423
580.5029 5708.52857
580.7057 5763.57797
580.9084 5732.81748
581.1111 5837.42773
581.3138 5815.71926
581.5164 5809.98495
581.7191 5851.10816
581.9217 5899.23542
582.1244 5911.40036
582.3270 5940.09240
582.5296 6024.73495
582.7322 6083.53213
582.9347 6119.12583
583.1373 6083.30685
583.3398 6158.97930
583.5424 6185.25474
583.7449 6237.33458
583.9474 6234.44695
584.1498 6270.22496
584.3523 6370.59591
584.5548 6386.44719
584.7572 6423.18775
584.9596 6501.66591
585.1620 6595.68816
585.3644 6565.33726
585.5668 6634.72244
585.7691 6709.39138
585.9715 6712.62717
586.1738 6829.40235
586.3761 6867.94512
586.5784 6997.11051
586.7807 7013.33042
586.9830 7072.20953
587.1852 7110.81374
587.3875 7160.35410
587.5897 7281.94200
587.7919 7300.18941
587.9941 7330.68366
588.1963 7397.61128
588.3984 7431.83284
588.6006 7442.40036
588.8027 7625.59116
589.0048 7654.93855
589.2069 7718.75326
589.4090 7837.10537
589.6111 7889.67673
589.8131 7984.31337
590.0152 8097.87323
590.2172 8080.62934
590.4192 8237.31943
590.6212 8232.79342
590.8232 8244.79451
591.0252 8416.22998
591.2271 8507.11883
591.4291 8587.62448
591.6310 8641.24030
591.8329 8734.34096
592.0348 8837.21043
592.2367 8902.54064
592.4385 9086.32535
592.6404 9241.60234
592.8422 9326.47017
593.0440 9473.04329
593.2458 9580.45925
593.4476 9644.39684
593.6494 9750.87073
593.8512 9905.67669
594.0529 9994.64045
594.2546 10093.04535
594.4563 10149.34401
594.6580 10189.97571
594.8597 10290.46954
595.0614 10411.23825
595.2630 10529.01694
595.4647 10676.83932
595.6663 10719.43707
595.8679 10890.85206
596.0695 11104.88527
596.2711 11134.13026
596.4727 11221.98812
596.6742 11391.84665
596.8757 11552.77604
597.0773 11690.01042
597.2788 11702.17536
597.4802 11900.37777
597.6817 12035.89186
597.8832 12032.38984
598.0846 12180.21222
598.2860 12256.23282
598.4875 12267.84480
598.6889 12563.18238
598.8902 12658.08525
599.0916 12814.16095
599.2930 12839.59672
599.4943 13045.47902
599.6956 13167.64035
599.8969 13241.03955
600.0982 13264.38640
600.2995 13350.91308
600.5008 13655.93754
600.7020 13720.28472
600.9032 13879.86245
601.1045 14019.18576
601.3057 14012.12027
601.5068 14227.23891
601.7080 14393.45205
601.9092 14355.60559
602.1103 14719.26340
602.3115 14788.54618
602.5126 14867.57730
602.7137 14956.17242
602.9147 15121.48446
603.1158 15273.09559
603.3169 15461.42679
603.5179 15610.92851
603.7189 15644.82240
603.9199 15802.45455
604.1209 15852.09731
604.3219 16020.03075
604.5229 16238.36470
604.7238 16259.41782
604.9247 16420.90015
605.1257 16575.41940
605.3266 16685.06764
605.5275 16747.44877
605.7283 16909.01302
605.9292 17123.90639
606.1300 16925.99069
606.3309 17127.57225
606.5317 17351.21044
606.7325 17615.91040
606.9332 17727.05366
607.1340 17859.43436
607.3348 17887.79873
607.5355 17965.06859
607.7362 18199.99109
607.9369 18137.42564
608.1376 18420.49588
608.3383 18513.51462
608.5390 18707.74398
608.7396 18767.11459
608.9402 19063.66047
609.1409 19109.98552
609.3415 19028.37397
609.5421 19171.62938
609.7426 19328.87242
609.9432 19452.91789
610.1437 19407.41202
610.3443 19926.46970
610.5448 19914.01805
610.7453 20115.23098
610.9457 20062.16811
611.1462 20201.28663
611.3467 20243.51574
611.5471 20567.50440
611.7475 20452.71575
611.9479 20915.51573
612.1483 20674.22405
612.3487 21136.26628
612.5491 20942.01645
612.7494 21510.10250
612.9497 21275.61008
613.1501 21553.60135
613.3504 21581.14653
613.5506 22029.18066
613.7509 21911.03334
613.9512 21858.44150
614.1514 21950.92777
614.3516 22313.07008
614.5519 22268.05573
614.7521 22519.34150
614.9522 22511.37490
615.1524 22588.78812
615.3526 22912.53102
615.5527 23230.78536
615.7528 23022.32262
615.9529 23131.99135
616.1530 23437.17965
616.3531 23757.23621
616.5532 23909.99420
616.7532 23626.14573
616.9532 23804.11421
617.1533 23738.59969
617.3533 23989.57826
617.5532 23988.04229
617.7532 24164.24952
617.9532 24046.94187
618.1531 24598.64417
618.3530 24252.66033
618.5530 24552.76967
618.7528 24766.39329
618.9527 24927.05644
619.1526 24866.64136
619.3524 24847.61573
619.5523 24976.37152
619.7521 25147.13116
619.9519 25323.21551
620.1517 25457.17315
620.3515 25671.30876
620.5512 25780.73173
620.7510 25776.16476
620.9507 25749.33637
621.1504 25698.48531
621.3501 25953.41646
621.5498 26315.27205
621.7495 26300.42428
621.9492 26376.38344
622.1488 26170.37827
622.3484 26324.93847
622.5480 26379.31204
622.7476 27008.96003
622.9472 26597.85078
623.1468 26627.71017
623.3463 27489.45446
623.5459 27529.86088
623.7454 27317.87564
623.9449 27520.48118
624.1444 27674.40652
624.3439 27923.29616
624.5433 27776.68208
624.7428 27948.85481
624.9422 27844.08073
625.1416 27958.35738
625.3410 27983.09685
625.5404 28291.97149
625.7398 28223.67173
625.9391 28405.30608
626.1385 28125.57403
626.3378 28225.14627
626.5371 28838.69723
626.7364 28442.39480
626.9357 28622.41125
627.1350 28668.22431
627.3342 28768.88198
627.5335 28712.37852
627.7327 28920.47262
627.9319 28908.75824
628.1311 29639.43253
628.3303 29139.23664
628.5294 29232.89025
628.7286 29547.80641
628.9277 29918.87787
629.1268 29882.79266
629.3259 30223.88185
629.5250 30254.99050
629.7241 30221.48573
629.9231 29726.88080
630.1222 30357.47085
630.3212 30377.37711
630.5202 30138.66587
630.7192 30407.19554
630.9182 30264.90267
631.1171 30432.81562
631.3161 30410.96380
631.5150 30157.56863
631.7140 30563.76275
631.9129 30832.08761
632.1118 31029.63468
632.3106 31010.26089
632.5095 31097.21765
632.7083 30837.86288
632.9072 30963.81296
633.1060 31125.80729
633.3048 30850.84701
633.5036 30952.26242
633.7023 31229.70075
633.9011 31613.61297
634.0998 31872.84485
634.2986 31549.12243
634.4973 31943.62265
634.6960 31716.07284
634.8947 31805.42572
635.0933 31832.31555
635.2920 31973.05196
635.4906 31751.72798
635.6892 32090.70777
635.8878 32343.69335
636.0864 32542.10056
636.2850 32208.99844
636.4836 32347.11345
636.6821 32232.83680
636.8806 32579.27119
637.0792 32730.45225
637.2777 32698.21722
637.4761 32620.66064
637.6746 32770.01900
637.8731 33248.81362
638.0715 32890.17333
638.2699 33135.84766
638.4683 33054.33850
638.6667 32914.78991
638.8651 33071.60288
639.0635 33290.01875
639.2618 33256.20678
639.4602 33398.43821
639.6585 33199.86716
639.8568 33495.57337
640.0551 33336.69195
640.2534 33264.89017
640.4516 33571.47109
640.6499 33702.33630
640.8481 34103.39002
641.0463 34093.02729
641.2445 34349.55586
641.4427 34047.62383
641.6409 34126.96214
641.8390 34103.34906
642.0372 34377.92023
642.2353 34262.47623
642.4334 34205.54270
642.6315 34459.20411
642.8296 34291.90554
643.0277 34138.36932
643.2257 34909.69579
643.4237 34795.35770
643.6218 34593.48942
643.8198 34657.95947
644.0178 34834.53534
644.2157 34639.26152
644.4137 34714.09430
644.6116 35580.75371
644.8096 35694.70269
645.0075 35004.98778
645.2054 35436.06472
645.4033 35243.61710
645.6011 35161.47307
645.7990 35180.86733
645.9968 35522.07941
646.1947 35531.43862
646.3925 35758.06685
646.5903 35421.33983
646.7881 35786.53361
646.9858 35488.59512
647.1836 35474.01358
647.3813 35298.40026
647.5790 35410.87470
647.7767 36306.55384
647.9744 35649.03299
648.1721 35802.69209
648.3698 36297.39942
648.5674 35777.35871
648.7650 36096.98520
648.9627 35813.15721
649.1603 36703.55258
649.3578 36484.09225
649.5554 36614.87553
649.7530 36784.69310
649.9505 36291.72654
650.1480 36695.72934
650.3455 36836.01520
650.5430 36241.10076
650.7405 36515.73337
650.9380 36659.54173
651.1354 36934.33818
651.3329 36794.56431
651.5303 37298.32366
651.7277 37221.93443
651.9251 37218.51432
652.1225 36929.05442
652.3198 36937.16438
652.5172 37226.84955
652.7145 37512.11112
652.9118 37538.91903
653.1091 37628.00567
653.3064 37596.50791
653.5037 37518.21407
653.7009 37182.49055
653.8982 37569.76144
654.0954 38048.31030
654.2926 38018.20516
654.4898 38020.43745
654.6870 38008.04723
654.8841 38408.65040
655.0813 38116.93773
655.2784 38487.16952
655.4755 38451.59631
655.6726 38659.15794
655.8697 38151.79416
656.0668 38627.57826
656.2639 38491.47026
656.4609 38375.45283
656.6579 38706.26122
656.8550 38770.13737
657.0520 38575.04786
657.2490 38016.58726
657.4459 38892.93357
657.6429 38998.24012
657.8398 38784.59602
658.0367 39160.70549
658.2337 38918.77894
658.4305 39134.22525
658.6274 39343.05662
658.8243 39225.03218
659.0211 39309.59281
659.2180 39258.98751
659.4148 39477.15762
659.6116 39556.25017
659.8084 39671.71465
660.0052 39782.79647
660.2019 39690.88364
660.3987 39499.66479
660.5954 39807.76121
660.7921 39893.36631
660.9888 39573.43263
661.1855 39897.93328
661.3822 39878.04750
661.5788 39964.00075
661.7755 39849.72409
661.9721 39793.01584
662.1687 40100.33403
662.3653 39870.28570
662.5619 40151.02125
662.7584 39975.61273
662.9550 40082.74198
663.1515 40266.38333
663.3480 40215.55275
663.5445 40633.76845
663.7410 40220.46787
663.9375 40524.95987
664.1340 40520.78201
664.3304 40736.31024
664.5268 40494.99809
664.7233 40980.69435
664.9197 40757.91631
665.1160 40960.33755
665.3124 40704.15713
665.5088 40929.92521
665.7051 40849.50148
665.9014 40667.21178
666.0977 40674.48207
666.2940 40630.04115
666.4903 40974.30469
666.6866 41100.58245
666.8828 40701.31046
667.0791 40940.98424
667.2753 41424.05911
667.4715 41435.42534
667.6677 41772.93059
667.8639 41820.01339
668.0600 41140.49736
668.2562 41366.28591
668.4523 41304.90829
668.6484 41672.00669
668.8445 41032.48748
669.0406 41936.85000
669.2367 41858.67904
669.4327 42142.38415
669.6287 42007.99644
669.8248 41773.72929
670.0208 41779.07449
670.2168 41619.90636
670.4128 41858.63808
670.6087 41794.49570
670.8047 41836.35618
671.0006 42198.94905
671.1965 41454.53288
671.3924 41812.80454
671.5883 41609.01117
671.7842 42043.22150
671.9801 41318.19960
672.1759 41852.33033
672.3717 41666.16997
672.5675 42779.75298
672.7633 42112.15613
672.9591 42662.91637
673.1549 42801.72769
673.3506 42637.68539
673.5464 42257.95103
673.7421 42560.80464
673.9378 42702.72888
674.1335 42210.88870
674.3292 42553.78011
674.5249 42207.42764
674.7205 41575.64976
674.9161 42026.03904
675.1118 41797.81341
675.3074 41751.57027
675.5030 41780.93814
675.6985 42320.14784
675.8941 42297.86594
676.0896 42297.66114
676.2852 42322.19580
676.4807 42096.28437
676.6762 42199.74775
676.8717 42673.21765
677.0671 42858.08779
677.2626 43043.42896
677.4580 42733.40745
677.6534 42746.18678
677.8489 42392.91217
678.0442 42457.30030
678.2396 42061.85802
678.4350 42416.09517
678.6303 42070.13181
678.8257 42375.27915
679.0210 42681.38904
679.2163 42543.72458
679.4116 42689.92907
679.6069 42357.29799
679.8021 41724.49612
679.9974 42170.89187
680.1926 42237.90141
680.3878 42179.96438
680.5830 42248.07982
680.7782 42261.41209
680.9734 42045.24899
681.1685 42080.10542
681.3636 42027.96413
681.5588 42380.29668
681.7539 42207.75531
681.9490 42144.08396
682.1441 42065.97443
682.3391 41766.76620
682.5342 42423.89793
682.7292 42682.35159
682.9242 42797.11976
683.1192 42604.07822
683.3142 42797.40647
683.5092 42944.75783
683.7041 43252.89520
683.8991 42837.21899
684.0940 42700.66043
684.2889 42210.82726
684.4838 42583.92621
684.6787 42444.11138
684.8736 41976.19148
685.0684 42397.60201
685.2633 42290.49325
685.4581 42517.96114
685.6529 42952.78586
685.8477 43227.07032
686.0425 42967.08068
686.2372 42750.13935
686.4320 42446.63039
686.6267 42452.65141
686.8214 42590.29539
687.0161 42400.20293
687.2108 42710.36780
687.4055 42740.10431
687.6002 42684.46100
687.7948 42739.73567
687.9894 42828.49464
688.1841 42826.87674
688.3787 42876.31471
688.5732 42791.89744
688.7678 42760.74783
688.9624 42488.69566
689.1569 42754.19433
689.3514 42158.33783
689.5459 41808.68812
689.7404 42396.04556
689.9349 42137.89910
690.1294 42378.71974
690.3238 42306.59028
690.5182 42313.61482
690.7127 42414.96879
690.9071 42513.76280
691.1015 42224.28242
691.2958 42587.87879
691.4902 42369.21717
691.6845 43171.32461
691.8789 42501.35211
692.0732 42558.85907
692.2675 42272.47112
692.4618 42712.39529
692.6560 42487.38496
692.8503 43053.11585
693.0445 42820.28228
693.2387 42120.16369
693.4329 42708.03312
693.6271 42602.43985
693.8213 42640.65495
694.0155 42740.06335
694.2096 42562.15630
694.4038 42151.06754
694.5979 42224.91729
694.7920 42258.40158
694.9861 42166.87785
695.1801 42263.15287
695.3742 42013.30068
695.5682 42122.76461
695.7623 42293.27849
695.9563 42174.70110
696.1503 42367.82455
696.3443 41666.23141
696.5382 42381.30018
696.7322 42165.28044
696.9261 42502.70377
697.1201 41842.90968
697.3140 42097.26740
697.5079 42398.33928
697.7017 41835.00452
697.8956 41701.00592
698.0894 41843.60599
698.2833 42172.55073
698.4771 42308.00338
698.6709 42622.85810
698.8647 42312.54987
699.0585 42767.83380
699.2522 41947.51992
699.4460 42014.89809
699.6397 42292.50026
699.8334 41697.17622
700.0271 42256.33313
700.2208 42478.72206
700.4144 42587.12104
700.6081 42587.79687
700.8017 42136.87511
700.9954 42408.21049
701.1890 41950.28468
701.3826 41865.06870
701.5761 41815.58978
701.7697 41783.49810
701.9632 41468.43859
702.1568 41993.53778
702.3503 41932.34447
702.5438 41792.05861
702.7373 40989.62350
702.9308 41762.40403
703.1242 41769.89959
703.3177 41515.89003
703.5111 41590.27225
703.7045 41785.77135
703.8979 42091.57404
704.0913 42323.58842
704.2847 42340.07457
704.4780 42264.54548
704.6713 41603.39973
704.8647 41708.95204
705.0580 41689.53730
705.2513 41598.64845
705.4445 41708.89060
705.6378 41699.14227
705.8311 40975.26724
706.0243 41037.99652
706.2175 41527.99352
706.4107 41423.79287
706.6039 41849.85229
706.7971 41769.03945
706.9902 41708.74725
707.1834 41711.34817
707.3765 41205.49988
707.5696 41037.85316
707.7627 41380.17114
707.9558 41339.06841
708.1489 40972.27720
708.3419 40732.95157
708.5349 40839.32307
708.7280 40704.89440
708.9210 41373.37188
709.1140 41429.67054
709.3069 41007.19507
709.4999 40708.27355
709.6929 41219.97902
709.8858 40666.57691
710.0787 40893.59424
710.2716 40350.10430
710.4645 40849.17380
710.6574 40780.07534
710.8502 41075.47435
711.0431 40265.87134
711.2359 40261.30437
711.4287 40206.56217
711.6215 40465.69165
711.8143 40255.87725
712.0071 40188.10997
712.1998 40457.37690
712.3925 40250.67541
712.5853 40737.82574
712.7780 40613.73931
712.9707 40396.59319
713.1633 40293.17077
713.3560 40688.67449
713.5487 40466.61324
713.7413 40740.63146
713.9339 40691.78740
714.1265 40378.20243
714.3191 40427.94759
714.5117 40052.75971
714.7042 40531.67721
714.8968 40697.54220
715.0893 41332.20771
715.2818 41077.91143
715.4743 41049.64946
715.6668 40519.20508
715.8592 40502.92373
716.0517 40520.00378
716.2441 40789.33215
716.4366 40269.63960
716.6290 40501.36727
716.8214 40648.75958
717.0137 40704.93536
717.2061 40622.01311
717.3984 40536.44897
717.5908 40187.94613
717.7831 40016.57211
717.9754 40434.82876
718.1677 39448.81373
718.3600 39825.39422
718.5522 39781.24002
718.7445 39916.81555
718.9367 39794.63373
719.1289 40041.96692
719.3211 39761.62048
719.5133 39665.75506
719.7054 39656.51872
719.8976 39852.28405
720.0897 39829.67448
720.2818 39980.13874
720.4740 39988.65829
720.6660 39798.46343
720.8581 39717.63011
721.0502 39560.01843
721.2422 39521.61902
721.4343 39782.26400
721.6263 39979.52435
721.8183 40041.98740
722.0103 40008.62599
722.2022 39673.74214
722.3942 40091.71208
722.5861 39492.21019
722.7781 39993.14334
722.9700 40187.78229
723.1619 39944.74984
723.3538 39452.41815
723.5456 39366.46491
723.7375 39556.82360
723.9293 39497.80114
724.1211 39217.20894
724.3129 38979.76745
724.5047 38900.81825
724.6965 39286.16405
724.8883 39152.57505
725.0800 39382.31618
725.2718 39116.26456
725.4635 39173.46433
725.6552 38801.51225
725.8469 39355.26252
726.0385 39731.72013
726.2302 39229.92683
726.4218 38584.59140
726.6135 38758.19771
726.8051 38653.42363
726.9967 38799.27996
727.1882 39088.18691
727.3798 39499.25520
727.5714 39158.59608
727.7629 39223.41429
727.9544 39239.38845
728.1459 38846.03509
728.3374 38839.78878
728.5289 39444.36964
728.7204 38909.62452
728.9118 39391.02005
729.1032 39646.36080
729.2946 39632.88516
729.4860 38649.81920
729.6774 38908.14998
729.8688 38935.65420
730.0602 38699.27765
730.2515 38565.97536
730.4428 38861.16958
730.6341 38561.89990
730.8254 38344.58994
731.0167 39023.96261
731.2080 38682.44334
731.3992 38786.74639
731.5905 38987.11965
731.7817 38696.45145
731.9729 38195.55925
732.1641 38531.03701
732.3553 38286.93962
732.5464 38832.43657
732.7376 38825.80116
732.9287 38828.44304
733.1198 38880.03137
733.3109 38793.83236
733.5020 38660.32528
733.6931 38820.23068
733.8841 38412.68490
734.0752 38734.40031
734.2662 38554.30194
734.4572 38420.09855
734.6482 38047.53207
734.8392 38127.81245
735.0302 38055.78539
735.2211 38172.54008
735.4120 37961.02587
735.6030 38289.74534
735.7939 38120.52168
735.9848 38037.68134
736.1756 37858.72983
736.3665 37707.83550
736.5574 37469.61577
736.7482 38092.15731
736.9390 37834.27709
737.1298 38089.41303
737.3206 37983.18489
737.5114 38144.76963
737.7021 37833.84701
737.8929 37946.19858
738.0836 37833.51934
738.2743 38045.62746
738.4650 37831.71712
738.6557 37407.00937
738.8463 37435.61949
739.0370 37499.72091
739.2276 37255.99215
739.4182 37034.17665
739.6088 37469.18570
739.7994 37018.98073
739.9900 37229.20472
740.1806 37382.90477
740.3711 37511.29193
740.5617 37682.35876
740.7522 37419.97301
740.9427 37257.05709
741.1332 37294.86260
741.3236 37304.18085
741.5141 37453.92833
741.7045 37706.89343
741.8949 37611.56048
742.0854 37111.69227
742.2758 37731.69433
742.4661 37263.16004
742.6565 36882.66793
742.8469 37011.73092
743.0372 36911.68764
743.2275 36420.74858
743.4178 36630.56297
743.6081 36874.92660
743.7984 36705.08856
743.9886 36775.14957
744.1789 36734.10827
744.3691 36637.81278
744.5593 36674.04135
744.7495 36292.93485
744.9397 36331.90769
745.1299 36278.53763
745.3200 35994.91443
745.5102 36264.22232
745.7003 36296.55975
745.8904 36265.92214
746.0805 36505.22729
746.2706 36372.31411
746.4607 36712.74796
746.6507 36799.68423
746.8408 36420.15466
747.0308 36730.64721
747.2208 36185.68272
747.4108 36316.01545
747.6007 36027.37474
747.7907 36493.16475
747.9806 36355.95084
748.1706 36244.70518
748.3605 36369.77463
748.5504 36179.33402
748.7403 36440.28620
748.9302 36073.72027
749.1200 36083.07949
749.3098 36177.67516
749.4997 35829.27472
749.6895 35808.34448
749.8793 35858.99075
750.0691 36421.38345
750.2588 36216.19746
750.4486 35874.18668
750.6383 35796.54818
750.8280 35267.04586
751.0177 35165.15941
751.2074 35259.03830
751.3971 35229.81379
751.5868 35368.89135
751.7764 35008.63316
751.9660 34761.25902
752.1557 35116.49968
752.3453 35708.26025
752.5348 35607.50018
752.7244 35621.65165
752.9140 35651.63391
753.1035 35789.42125
753.2930 35509.89399
753.4825 35280.19382
753.6720 35056.47371
753.8615 35150.72123
754.0510 35017.84902
754.2404 35098.88715
754.4299 35330.36905
754.6193 35332.64230
754.8087 35088.11483
754.9981 35224.87818
755.1875 34808.05510
755.3768 34563.91675
755.5662 34848.48201
755.7555 34893.23012
755.9448 35318.90043
756.1341 34988.13300
756.3234 34534.54888
756.5127 34750.13855
756.7019 34869.45321
756.8912 34994.44074
757.0804 34871.05062
757.2696 34638.58569
757.4588 34302.20682
757.6480 34141.07264
757.8371 34096.40644
758.0263 34033.84100
758.2154 33674.72968
758.4045 33447.32323
758.5936 33337.47018
758.7827 33905.86343
758.9718 34032.24358
759.1609 33957.71800
759.3499 33800.31112
759.5389 33206.52306
759.7280 33317.07241
759.9170 33670.36750
760.1059 33744.89309
760.2949 33679.56288
760.4839 33574.78880
760.6728 33713.76396
760.8617 33619.96699
761.0506 33191.34761
761.2395 33135.66334
761.4284 33000.98892
761.6173 33059.11027
761.8061 33131.15781
761.9950 33096.73146
762.1838 32931.29654
762.3726 33150.06056
762.5614 32663.77038
762.7502 33290.10067
762.9389 32973.70997
763.1277 32731.35335
763.3164 33105.18957
763.5051 33028.47266
763.6938 33158.62107
763.8825 32978.44078
764.0712 33332.41170
764.2598 32979.85388
764.4484 33336.24140
764.6371 33387.01055
764.8257 33052.55677
765.0143 33301.91745
765.2029 33006.98947
765.3914 33359.30153
765.5800 33537.61817
765.7685 33101.19603
765.9570 32884.21374
766.1455 32605.38279
766.3340 32560.81899
766.5225 32643.74125
766.7110 32557.97232
766.8994 32370.11214
767.0878 32146.80163
767.2762 32400.23776
767.4646 32154.07192
767.6530 32193.84347
767.8414 32413.40620
768.0298 32161.23981
768.2181 32378.57025
768.4064 32353.56456
768.5947 32248.17608
768.7830 31909.93357
768.9713 31982.84125
769.1596 31657.86957
769.3478 31638.76202
769.5360 31795.51355
769.7243 31552.80877
769.9125 31284.17671
770.1007 31116.98055
770.2888 31090.19311
770.4770 30930.65635
770.6651 30909.31651
770.8533 30808.35165
771.0414 30733.64175
771.2295 30794.48691
771.4176 31106.02391
771.6056 31246.10497
771.7937 30803.98948
771.9817 30544.10225
772.1698 30981.44597
772.3578 30803.25221
772.5458 30745.31518
772.7337 30520.87828
772.9217 30685.47353
773.1096 30545.74062
773.2976 30784.96385
773.4855 30964.83695
773.6734 30679.24770
773.8613 30773.78194
774.0492 30458.21044
774.2370 30406.45827
774.4249 30836.40883
774.6127 31034.50884
774.8005 30871.75677
774.9883 30756.86572
775.1761 30810.35866
775.3639 30311.06388
775.5516 30550.57383
775.7394 30133.30020
775.9271 30067.66280
776.1148 29964.19942
776.3025 29260.61975
776.4902 29558.23057
776.6778 29365.74199
776.8655 29619.99731
777.0531 30105.63214
777.2407 30018.28627
777.4283 29522.71879
777.6159 29808.75859
777.8035 29737.22304
777.9911 29277.57693
778.1786 29706.42159
778.3661 29514.24020
778.5536 29533.67543
778.7411 29878.38953
778.9286 30059.49140
779.1161 29855.37036
779.3036 29341.98555
779.4910 29391.73071
779.6784 29335.49349
779.8658 29605.37481
780.0532 29314.50181
780.2406 29433.05872
780.4280 28882.07321
780.6153 29194.04029
780.8026 29312.82248
780.9900 29238.11257
781.1773 28830.07528
781.3646 29117.67153
781.5518 28824.38193
781.7391 29079.04684
781.9263 28678.23888
782.1136 28533.75468
782.3008 28304.40266
782.4880 28411.69575
782.6752 28360.98804
782.8623 28383.86385
783.0495 28584.66719
783.2366 28175.95406
783.4237 28235.01748
783.6108 28617.04557
783.7979 28336.04378
783.9850 28392.64964
784.1721 28703.69513
784.3591 28230.43003
784.5462 28244.54054
784.7332 28369.11847
784.9202 28407.64077
785.1072 28203.97027
785.2941 28254.49366
785.4811 28025.51028
785.6681 28096.45192
785.8550 28080.21152
786.0419 28008.34830
786.2288 27744.24225
786.4157 27510.52806
786.6025 27596.39939
786.7894 27697.75336
786.9762 27608.19569
787.1631 27233.27405
787.3499 27603.64920
787.5367 27605.04181
787.7234 27177.75361
787.9102 27253.09838
788.0970 27258.23879
788.2837 27415.15415
788.4704 27010.39361
788.6571 26827.32568
788.8438 26967.69346
789.0305 26735.18757
789.2171 26641.47252
789.4038 26436.63468
789.5904 26463.09444
789.7770 26568.97442
789.9636 26452.07637
790.1502 26768.34418
790.3368 26748.29457
790.5233 26621.58674
790.7099 26576.28567
790.8964 26220.16439
791.0829 25946.74008
791.2694 25979.05703
791.4559 25965.33563
791.6423 25875.14309
791.8288 25895.41798
792.0152 26059.05068
792.2016 26084.13830
792.3880 26137.36501
792.5744 25887.00083
792.7608 25562.74594
792.9471 25808.50219
793.1335 26157.49654
793.3198 25784.99151
793.5061 25820.21657
793.6924 25367.08300
793.8787 25458.87296
794.0650 25434.48165
794.2512 25611.58999
794.4375 25793.67489
794.6237 25911.02350
794.8099 25815.24000
794.9961 25350.28966
795.1823 25250.34878
795.3684 25321.43378
795.5546 25050.93807
795.7407 25187.55806
795.9268 24769.17853
796.1129 24972.60326
796.2990 25416.33665
796.4851 25722.34414
796.6712 25410.62282
796.8572 25058.39267
797.0432 24803.37960
797.2292 25135.96973
797.4152 25137.91530
797.6012 24584.79990
797.7872 24565.52851
797.9731 24697.17195
798.1591 24467.96328
798.3450 24399.15153
798.5309 24612.65228
798.7168 24786.64770
798.9027 24738.21324
799.0885 24671.12178
799.2744 24538.98684
799.4602 24877.78231
799.6460 24800.38957
799.8318 25078.54469
800.0176 24761.51912
800.2034 24699.99814
800.3892 24202.09598
800.5749 24146.61651
800.7606 24220.22050
800.9463 24295.72911
801.1320 24205.65945
801.3177 24267.97913
801.5034 24263.37120
801.6890 24320.38665
801.8747 23927.99584
802.0603 23559.13619
802.2459 23522.84618
802.4315 23656.70142
802.6171 23413.48465
802.8026 23669.74698
802.9882 23677.03775
803.1737 23322.28860
803.3592 23603.88431
803.5447 23786.70648
803.7302 23764.32218
803.9157 23696.88257
804.1012 23749.69968
804.2866 23245.85841
804.4720 23387.10682
804.6574 23121.87438
804.8428 22962.23522
805.0282 22934.73100
805.2136 23010.09625
805.3989 23309.95983
805.5843 22989.30937
805.7696 22912.57198
805.9549 22799.03259
806.1402 22789.63241
806.3255 22622.68200
806.5107 22754.42783
806.6960 23024.24771
806.8812 22629.27646
807.0664 22758.64665
807.2516 22429.23087
807.4368 22237.00853
807.6220 22178.08846
807.8072 22137.70252
807.9923 22239.75280
808.1774 22213.88696
808.3625 22519.19814
808.5476 22458.55778
808.7327 22513.01327
808.9178 22200.39084
809.1028 22150.60472
809.2879 21982.36409
809.4729 21938.70140
809.6579 21821.53710
809.8429 22038.04836
810.0279 22009.90927
810.2128 21981.34011
810.3978 21966.16466
810.5827 22005.56758
810.7676 22142.41285
810.9525 22151.58775
811.1374 21930.96008
811.3223 21820.77936
811.5072 21501.23479
811.6920 21456.83483
811.8768 21731.73368
812.0616 21337.27441
812.2464 21582.66203
812.4312 21517.86430
812.6160 21394.31034
812.8007 21542.60376
812.9855 21682.70530
813.1702 21360.88749
813.3549 21269.63001
813.5396 21130.67533
813.7243 20979.55571
813.9089 21220.86787
814.0936 21313.84565
814.2782 21334.85781
814.4628 21336.39379
814.6474 21330.06556
814.8320 21218.49223
815.0166 20925.81701
815.2012 21107.32848
815.3857 20912.27994
815.5702 20941.62733
815.7547 20974.23099
815.9392 20980.92785
816.1237 20724.87032
816.3082 20307.76052
816.4926 20513.39707
816.6771 20574.16030
816.8615 20334.30220
817.0459 20537.19446
817.2303 20482.37034
817.4147 20637.23774
817.5990 20651.02057
817.7834 20462.54600
817.9677 20374.42191
818.1520 20530.72288
818.3363 20334.28172
818.5206 20113.22397
818.7049 20181.42133
818.8891 20251.60522
819.0734 20279.70335
819.2576 20183.24402
819.4418 19921.20642
819.6260 19918.70790
819.8102 19984.09954
819.9944 19826.20115
820.1785 19678.91124
820.3627 19883.44188
820.5468 19879.85793
820.7309 19755.11616
820.9150 19551.36375
821.0991 19374.95172
821.2831 19586.28161
821.4672 19475.34315
821.6512 19353.67332
821.8352 19366.37073
822.0192 19676.45368
822.2032 19469.07636
822.3872 19610.50908
822.5711 19445.77048
822.7551 19384.61813
822.9390 19475.11787
823.1229 19533.66930
823.3068 19519.74311
823.4907 19155.40947
823.6745 19214.10425
823.8584 19136.79343
824.0422 19118.97610
824.2261 19084.57023
824.4099 19224.67177
824.5937 19370.03659
824.7774 19207.55075
824.9612 19234.31770
825.1449 19152.74711
825.3287 19129.46170
825.5124 19030.58577
825.6961 19184.77734
825.8798 19196.94227
826.0634 19290.63684
826.2471 19035.62378
826.4307 19053.97357
826.6144 19020.73504
826.7980 19144.30948
826.9816 18910.57480
827.1652 19113.32371
827.3487 18933.90117
827.5323 18668.77113
827.7158 18440.21782
827.8993 18725.68418
828.0828 18676.24622
828.2663 18428.01193
828.4498 18602.19167
828.6333 18904.00082
828.8167 18689.94713
829.0001 18722.01832
829.1836 18780.40591
829.3670 18756.32180
829.5504 18861.97650
829.7337 18488.65228
829.9171 18472.73956
830.1004 18537.47586
830.2837 18424.48942
830.4671 18207.67097
830.6504 18034.39233
830.8336 18148.89427
831.0169 18101.27899
831.2002 18242.56836
831.3834 18216.10860
831.5666 18132.34668
831.7498 18223.66560
831.9330 18390.82081
832.1162 18317.91313
832.2993 18104.61718
832.4825 18211.19348
832.6656 18086.55410
832.8487 17863.53030
833.0318 17791.33940
833.2149 17736.47432
833.3980 17902.64650
833.5811 18000.51893
833.7641 17916.18358
833.9471 17817.34860
834.1301 17642.71831
834.3131 17484.45128
834.4961 17618.06077
834.6791 17566.71819
834.8620 17976.57817
835.0450 17965.66250
835.2279 18033.79842
835.4108 17875.42900
835.5937 18015.75582
835.7766 17732.52174
835.9594 17755.80714
836.1423 17674.68710
836.3251 17990.89348
836.5079 17937.17526
836.6907 17642.26776
836.8735 17632.23271
837.0563 17679.86846
837.2390 17647.98159
837.4218 17439.19117
837.6045 17624.42995
837.7872 17768.52503
837.9699 17497.74260
838.1526 17326.30714
838.3352 17382.09381
838.5179 17468.29281
838.7005 17458.70832
838.8831 17490.43135
839.0658 17518.01749
839.2483 17718.57507
839.4309 17625.80209
839.6135 17649.49709
839.7960 17385.75967
839.9786 17372.67315
840.1611 17118.41783
840.3436 17309.59571
840.5261 17124.66413
840.7085 16948.57978
840.8910 16911.79826
841.0734 17016.61330
841.2559 16950.75063
841.4383 17086.92007
841.6207 17258.62177
841.8030 16990.58362
841.9854 16910.38516
842.1678 16822.52730
842.3501 16917.71689
842.5324 16862.29886
842.7147 16950.64823
842.8970 17137.87353
843.0793 16976.26832
843.2615 16942.82499
843.4438 17114.28093
843.6260 17089.11140
843.8082 17032.58746
843.9904 17026.99650
844.1726 16765.42994
844.3548 16567.51424
844.5369 16566.67457
844.7191 16617.54611
844.9012 16512.85395
845.0833 16552.40023
845.2654 16763.44341
845.4475 16972.56150
845.6296 16723.32370
845.8116 16594.81366
845.9936 16549.88122
846.1757 16344.75668
846.3577 16234.24828
846.5397 16269.02279
846.7216 16273.99935
846.9036 16232.32319
847.0855 15970.53135
847.2675 16241.88720
847.4494 16316.08511
847.6313 16487.88921
847.8132 16523.31907
847.9950 16326.77551
848.1769 16251.75841
848.3587 16392.88394
848.5406 16231.05345
848.7224 16230.19330
848.9042 16240.26931
849.0860 16349.09837
849.2677 16133.07862
849.4495 15944.91126
849.6312 16020.15363
849.8129 16220.81361
849.9946 16433.47468
850.1763 16251.61506
850.3580 16037.21321
850.5397 15870.63143
850.7213 15698.27438
850.9029 15778.63667
851.0845 15923.16183
851.2661 15951.05516
851.4477 15835.89788
851.6293 15807.86119
851.8109 15750.57950
851.9924 15753.30330
852.1739 15816.93369
852.3554 15723.19816
852.5369 15765.32488
852.7184 15523.80792
852.8999 15476.49984
853.0813 15441.13142
853.2628 15491.10186
853.4442 15608.24567
853.6256 15595.01580
853.8070 15593.88941
853.9883 15704.74596
854.1697 15545.68023
854.3510 15299.86254
854.5324 15338.09812
854.7137 15279.91532
854.8950 15341.92782
855.0763 15390.36228
855.2575 15451.84230
855.4388 15382.37520
855.6200 15429.74472
855.8013 15451.41223
855.9825 15224.47681
856.1637 15121.48446
856.3449 15208.23642
856.5260 15208.23642
856.7072 15083.47416
856.8883 15266.25537
857.0694 15164.28701
857.2505 15161.66561
857.4316 15073.64391
857.6127 14931.51488
857.7938 15010.46408
857.9748 14954.77980
858.1558 14914.08667
858.3368 14886.99204
858.5178 14825.98305
858.6988 14855.37140
858.8798 14791.47478
859.0607 14990.59878
859.2417 14913.41084
859.4226 14940.11635
859.6035 14930.71617
859.7844 14918.28500
859.9653 14807.24414
860.1462 14703.94459
860.3270 14733.80398
860.5078 14661.71548
860.6887 14720.47170
860.8695 14682.42044
861.0503 14591.61351
861.2310 14337.91114
861.4118 14339.61095
861.5925 14378.25612
861.7733 14349.54360
861.9540 14169.05611
862.1347 14099.67093
862.3154 14131.78308
862.4960 14336.82571
862.6767 14273.33868
862.8573 14298.91781
863.0380 14151.66886
863.2186 14143.51794
863.3992 13925.40927
863.5797 13999.89390
863.7603 14059.28499
863.9409 14084.53644
864.1214 13983.67398
864.3019 13896.61483
864.4824 13782.72729
864.6629 13699.19064
864.8434 13497.15853
865.0238 13542.27528
865.2043 13632.30398
865.3847 13502.68804
865.5651 13446.12315
865.7455 13570.33245
865.9259 13618.17300
866.1063 13485.64894
866.2866 13466.17276
866.4670 13393.65419
866.6473 13313.43525
866.8276 13314.41828
867.0079 13295.16737
867.1882 13156.62228
867.3684 13007.38680
867.5487 13038.55688
867.7289 13145.41989
867.9091 13120.96715
868.0893 12895.42435
868.2695 12710.06270
868.4497 12583.96926
868.6299 12625.09247
868.8100 12682.78375
868.9901 12733.34810
869.1703 12954.40585
869.3504 12941.19645
869.5304 12855.89855
869.7105 12955.79847
869.8906 12826.34636
870.0706 12672.78967
870.2506 12660.19466
870.4306 12720.22062
870.6106 12701.74794
870.7906 12828.12810
870.9706 12744.38665
871.1505 12622.57347
871.3305 12603.60928
871.5104 12581.36834
871.6903 12466.96881
871.8702 12502.56250
872.0500 12485.74868
872.2299 12454.12804
872.4097 12289.57375
872.5896 12306.05990
872.7694 12352.61023
872.9492 12408.49930
873.1290 12107.71413
873.3087 12156.39435
873.4885 12479.05182
873.6682 12385.70541
873.8480 12224.81698
874.0277 12131.83920
874.2074 11856.28500
874.3870 11896.93718
874.5667 11923.35598
874.7463 12153.65007
874.9260 11963.72145
875.1056 11928.37350
875.2852 11881.47502
875.4648 11910.35138
875.6444 11866.42245
875.8239 11987.92844
876.0035 11884.99753
876.1830 11759.86664
876.3625 11693.43053
876.5420 11724.15006
876.7215 11685.73017
876.9010 11602.64408
877.0804 11585.83025
877.2599 11395.06196
877.4393 11544.35888
877.6187 11630.45549
877.7981 11724.12958
877.9775 11591.17545
878.1568 11642.94810
878.3362 11510.28068
878.5155 11552.20260
878.6948 11377.65423
878.8741 11361.29096
879.0534 11318.87752
879.2327 11276.15690
879.4119 11297.86537
879.5912 11159.97563
879.7704 11281.70689
879.9496 11450.19328
880.1288 11423.77448
880.3080 11261.04289
880.4872 11342.44965
880.6663 11329.77272
880.8455 11276.89417
881.0246 11333.35666
881.2037 11323.81313
881.3828 11240.41984
881.5619 11212.42411
881.7409 11179.22654
881.9200 11103.69745
882.0990 11182.95384
882.2780 11100.54358
882.4570 11055.71354
882.6360 11018.78866
882.8150 10892.18324
882.9940 10898.90057
883.1729 10966.62690
883.3518 11166.91824
883.5308 11087.17034
883.7096 11026.63238
883.8885 10851.96113
884.0674 10740.14204
884.2463 10619.22996
884.4251 10709.99594
884.6039 10698.22012
884.7827 10754.60070
884.9615 10749.60365
885.1403 10697.83100
885.3191 10601.12592
885.4978 10469.17529
885.6765 10439.68454
885.8553 10581.71117
886.0340 10660.61941
886.2127 10576.38645
886.3913 10425.96315
886.5700 10329.09423
886.7486 10205.31500
886.9273 10209.98437
887.1059 10198.57718
887.2845 10111.29275
887.4630 10142.17612
887.6416 10210.70115
887.8202 10271.73062
887.9987 10250.02215
888.1772 10237.22235
888.3557 10204.78253
888.5342 10077.35791
888.7127 10232.63490
888.8912 10287.43854
889.0696 10299.46012
889.2481 10118.48112
889.4265 9957.12166
889.6049 9895.08869
889.7833 9852.26566
889.9616 9790.60132
890.1400 9809.03304
890.3183 9706.75748
890.4967 9820.58359
890.6750 9969.18420
890.8533 9825.00720
891.0316 9723.20267
891.2098 9602.24964
891.3881 9630.36825
891.5663 9558.48455
891.7445 9609.95000
891.9227 9565.42716
892.1009 9548.26518
892.2791 9648.69757
892.4573 9592.66515
892.6354 9500.56799
892.8136 9616.03247
892.9917 9601.63525
893.1698 9506.09751
893.3479 9573.51664
893.5259 9613.00147
893.7040 9461.88186
893.8820 9463.68407
894.0601 9366.71275
894.2381 9482.03387
894.4161 9521.43679
894.5941 9622.17637
894.7720 9563.44063
894.9500 9625.24833
895.1279 9669.07486
895.3058 9490.08239
895.4838 9486.27317
895.6616 9365.15630
895.8395 9239.30862
896.0174 9278.67058
896.1952 9351.00483
896.3731 9462.45529
896.5509 9453.50567
896.7287 9386.92620
896.9065 9323.56205
897.0842 9429.83115
897.2620 9356.22715
897.4397 9275.12759
897.6175 9274.16505
897.7952 9334.10909
897.9729 9406.54575
898.1506 9366.36460
898.3282 9263.24937
898.5059 9240.43500
898.6835 9228.51582
898.8611 9286.06374
899.0388 9120.44451
899.2163 8980.26105
899.3939 8959.84280
899.5715 9150.73397
899.7490 9157.65610
899.9266 9101.27552
900.1041 9116.20522
900.2816 9127.18233
900.4591 9085.99768
900.6365 9110.63474
900.8140 8947.24779
900.9914 8923.45040
901.1689 8908.93030
901.3463 8971.16807
901.5237 9013.35622
901.7011 8889.90467
901.8784 8862.27757
902.0558 8754.86161
902.2331 8839.05360
902.4104 8914.27550
902.5878 8894.55356
902.7650 8767.94813
902.9423 8742.49188
903.1196 8843.78441
903.2968 8907.64008
903.4741 8885.70633
903.6513 8816.95602
903.8285 8761.92710
904.0057 8819.86414
904.1828 8666.61464
904.3600 8561.32856
904.5371 8580.55899
904.7143 8612.46634
904.8914 8661.33088
905.0685 8743.41346
905.2456 8661.41280
905.4226 8654.98217
905.5997 8741.93893
905.7767 8824.73830
905.9537 8724.65407
906.1307 8641.24030
906.3077 8607.34642
906.4847 8576.36065
906.6617 8536.77342
906.8386 8626.22869
907.0156 8530.83431
907.1925 8474.43325
907.3694 8438.79859
907.5463 8448.99748
907.7231 8439.39250
907.9000 8503.86256
908.0768 8514.10240
908.2537 8414.50968
908.4305 8361.22154
908.6073 8433.41243
908.7841 8442.60781
908.9608 8357.26896
909.1376 8328.76123
909.3143 8370.37596
909.4910 8331.13687
909.6677 8385.40805
909.8444 8336.31824
910.0211 8284.89374
910.1978 8292.43027
910.3744 8376.99090
910.5510 8376.56082
910.7277 8402.24235
910.9043 8324.27618
911.0808 8290.85333
911.2574 8270.31220
911.4340 8239.14212
911.6105 8128.79756
911.7870 8141.00346
911.9636 8167.83185
912.1401 8091.03302
912.3165 8140.36859
912.4930 8081.10037
912.6695 8012.90301
912.8459 7972.27131
913.0223 7952.61081
913.1987 7924.34884
913.3751 7932.06968
913.5515 7918.77837
913.7279 7954.63830
913.9042 7920.60106
914.0805 7841.93858
914.2568 7843.16736
914.4331 7840.75076
914.6094 7807.49175
914.7857 7833.05040
914.9620 7852.69042
915.1382 7782.73180
915.3144 7774.39657
915.4906 7850.94964
915.6668 7837.28969
915.8430 7751.13165
916.0192 7611.35778
916.1953 7658.29722
916.3715 7722.99255
916.5476 7622.37585
916.7237 7742.59162
916.8998 7712.93703
917.0759 7614.88028
917.2519 7551.37277
917.4280 7643.71568
917.6040 7620.00021
917.7800 7637.14170
917.9560 7614.28637
918.1320 7666.34574
918.3080 7656.80220
918.4839 7594.66683
918.6599 7610.06756
918.8358 7570.84896
919.0117 7549.95967
919.1876 7478.97708
919.3635 7502.30344
919.5394 7620.86035
919.7152 7585.75817
919.8911 7505.08868
920.0669 7462.22469
920.2427 7311.12556
920.4185 7280.09883
920.5942 7291.85417
920.7700 7260.95032
920.9458 7355.93512
921.1215 7348.25523
921.2972 7333.42794
921.4729 7313.07113
921.6486 7207.21163
921.8243 7077.53424
921.9999 7100.61485
922.1756 7103.48201
922.3512 7140.24305
922.5268 7070.50971
922.7024 7169.34468
922.8780 7203.62768
923.0535 7198.13912
923.2291 7120.05007
923.4046 7178.78582
923.5801 7276.61729
923.7557 7214.74815
923.9311 7179.58453
924.1066 7125.94823
924.2821 7147.30854
924.4575 7136.63862
924.6330 7121.05358
924.8084 7027.46141
924.9838 6996.76236
925.1592 7003.00866
925.3345 6958.01479
925.5099 6901.06078
925.6852 6848.98093
925.8606 6912.36556
926.0359 6848.10030
926.2112 6848.46894
926.3864 6805.76879
926.5617 6692.86427
926.7370 6664.62278
926.9122 6665.31909
927.0874 6662.20618
927.2626 6679.18384
927.4378 6639.10509
927.6130 6654.62870
927.7882 6608.22173
927.9633 6519.40132
928.1384 6523.98877
928.3135 6502.89469
928.4886 6415.07779
928.6637 6455.19750
928.8388 6494.60042
929.0139 6464.98679
929.1889 6450.61005
929.3639 6413.99237
929.5389 6436.56098
929.7139 6419.84956
929.8889 6436.21283
930.0639 6450.67149
930.2388 6369.75624
930.4138 6323.55407
930.5887 6332.21698
930.7636 6375.22432
930.9385 6352.12323
931.1134 6294.53435
931.2882 6294.69819
931.4631 6235.59381
931.6379 6178.35308
931.8127 6108.37399
931.9875 6135.36622
932.1623 6147.34684
932.3371 6126.90811
932.5118 6066.88215
932.6866 6028.85137
932.8613 6049.08530
933.0360 6053.59083
933.2107 6016.52259
933.3854 5975.31746
933.5600 5989.36653
933.7347 5893.91070
933.9093 5893.15296
934.0839 5925.65422
934.2586 5958.64700
934.4331 5933.64130
934.6077 5886.78377
934.7823 5876.54393
934.9568 5951.06951
935.1314 5881.00850
935.3059 5862.10575
935.4804 5773.98165
935.6549 5805.41798
935.8293 5799.70414
936.0038 5784.67205
936.1782 5812.17627
936.3526 5817.09140
936.5271 5753.13333
936.7015 5698.65736
936.8758 5689.81014
937.0502 5653.19246
937.2246 5693.10737
937.3989 5763.74181
937.5732 5702.85570
937.7475 5653.47917
937.9218 5619.54433
938.0961 5586.14196
938.2703 5556.44641
938.4446 5523.90419
938.6188 5568.26319
938.7930 5579.01503
938.9672 5560.87003
939.1414 5566.99345
939.3156 5515.38464
939.4897 5476.18652
939.6639 5448.27270
939.8380 5422.67310
940.0121 5403.50411
940.1862 5421.93583
940.3603 5465.04557
940.5344 5466.78634
940.7084 5442.39503
940.8824 5399.32625
941.0565 5403.70890
941.2305 5336.88368
941.4045 5268.50201
941.5784 5235.22252
941.7524 5239.89188
941.9263 5316.75215
942.1003 5314.41747
942.2742 5305.79552
942.4481 5227.68599
942.6220 5250.95092
942.7958 5231.98673
942.9697 5263.11585
943.1435 5228.01367
943.3174 5241.18210
943.4912 5160.18494
943.6650 5136.55138
943.8387 5085.51600
944.0125 5070.19719
944.1863 5108.51469
944.3600 5117.17760
944.5337 5116.01025
944.7074 5169.25744
944.8811 5133.31559
945.0548 5107.61358
945.2284 5053.03522
945.4021 5055.41086
945.5757 5066.12174
945.7493 5022.50000
945.9229 4883.46340
946.0965 4809.08118
946.2701 4816.57674
946.4436 4854.54608
946.6172 4842.66787
946.7907 4838.94056
946.9642 4859.76840
947.1377 4861.57062
947.3112 4816.88394
947.4847 4836.89259
947.6581 4859.72745
947.8315 4857.98667
948.0050 4758.96738
948.1784 4727.94066
948.3518 4751.16462
948.5251 4759.52033
948.6985 4821.55331
948.8718 4787.18839
949.0452 4694.12869
949.2185 4694.59972
949.3918 4690.66763
949.5651 4705.14676
949.7383 4654.88961
949.9116 4654.91009
950.0848 4694.47685
950.2581 4695.80803
950.4313 4708.54639
950.6045 4750.65263
950.7776 4775.04394
950.9508 4662.15990
951.1239 4648.52043
951.2971 4568.87492
951.4702 4573.68765
951.6433 4574.24060
951.8164 4539.22034
951.9895 4545.79432
952.1625 4483.33127
952.3356 4510.40542
952.5086 4493.14104
952.6816 4508.27553
952.8546 4477.28976
953.0276 4432.00917
953.2006 4445.52577
953.3735 4449.29403
953.5465 4478.21135
953.7194 4463.24070
953.8923 4440.11913
954.0652 4431.02615
954.2381 4426.21342
954.4109 4398.97544
954.5838 4371.98321
954.7566 4380.95331
954.9294 4327.50133
955.1022 4323.93786
955.2750 4328.64819
955.4478 4316.21702
955.6206 4336.16423
955.7933 4337.74117
955.9660 4319.76000
956.1388 4349.74227
956.3115 4314.29193
956.4841 4278.63679
956.6568 4231.02152
956.8295 4240.19642
957.0021 4218.05788
957.1747 4234.93314
957.3473 4222.09238
957.5199 4199.56472
957.6925 4203.06675
957.8651 4212.93795
958.0376 4186.86731
958.2102 4171.85570
958.3827 4204.17265
958.5552 4243.22741
958.7277 4220.24920
958.9001 4185.72045
959.0726 4104.21129
959.2450 4046.66337
959.4175 4059.29934
959.5899 4005.21248
959.7623 4003.77891
959.9347 3978.85513
960.1070 3985.55198
960.2794 4006.91230
960.4517 3996.22190
960.6241 4001.50566
960.7964 4002.61156
960.9687 4025.73313
961.1409 4037.42703
961.3132 4007.44477
961.4855 3987.88667
961.6577 3971.85107
961.8299 3939.24741
962.0021 3924.31772
962.1743 3874.75687
962.3465 3844.32406
962.5186 3839.73661
962.6908 3840.88347
962.8629 3830.39787
963.0350 3782.94644
963.2071 3797.56893
963.3792 3809.61099
963.5513 3841.12923
963.7233 3873.01610
963.8954 3846.86354
964.0674 3857.88161
964.2394 3819.95323
964.4114 3788.25068
964.5834 3783.84754
964.7553 3766.21453
964.9273 3766.35789
965.0992 3751.42820
965.2711 3785.28112
965.4430 3759.59959
965.6149 3725.97195
965.7868 3714.64668
965.9587 3730.39556
966.1305 3748.29480
966.3023 3747.59850
966.4741 3735.06493
966.6459 3729.57637
966.8177 3739.07895
966.9895 3715.79354
967.1613 3726.34058
967.3330 3718.23062
967.5047 3677.18933
967.6764 3670.77919
967.8481 3652.85946
968.0198 3658.86001
968.1915 3621.46410
968.3631 3600.02187
968.5347 3584.88738
968.7064 3605.48994
968.8780 3608.02943
969.0496 3593.93940
969.2211 3573.33683
969.3927 3584.76450
969.5642 3525.00477
969.7358 3521.91234
969.9073 3494.28524
970.0788 3541.42948
970.2503 3545.52542
970.4217 3557.60843
970.5932 3546.05789
970.7646 3520.43780
970.9360 3530.69812
971.1074 3570.34680
971.2788 3581.87686
971.4502 3533.07377
971.6216 3484.92602
971.7929 3456.37734
971.9643 3470.52880
972.1356 3489.98451
972.3069 3467.55925
972.4782 3457.95427
972.6494 3441.40669
972.8207 3426.53843
972.9919 3412.01834
973.1632 3399.36189
973.3344 3384.61651
973.5056 3370.44457
973.6768 3340.11415
973.8479 3378.18589
974.0191 3397.10912
974.1902 3428.60688
974.3614 3391.92776
974.5325 3389.12205
974.7036 3350.35400
974.8746 3351.15270
975.0457 3364.81266
975.2167 3343.80050
975.3878 3317.75033
975.5588 3289.50885
975.7298 3298.70422
975.9008 3264.27787
976.0718 3264.83082
976.2427 3255.34873
976.4137 3249.83969
976.5846 3256.16791
976.7555 3245.55944
976.9264 3254.71386
977.0973 3259.17843
977.2682 3259.17843
977.4390 3280.53874
977.6098 3293.44095
977.7807 3265.26090
977.9515 3259.46514
978.1223 3277.20055
978.2930 3250.49504
978.4638 3223.48233
978.6346 3185.00100
978.8053 3136.19790
978.9760 3140.86727
979.1467 3118.27818
979.3174 3125.44607
979.4881 3119.15880
979.6587 3114.57135
979.8294 3108.85752
980.0000 3100.82948
980.1706 3103.90144
980.3412 3098.29000
980.5118 3140.45768
980.6824 3123.45954
980.8529 3126.24478
981.0235 3119.97799
981.1940 3110.70069
981.3645 3084.11806
981.5350 3088.31640
981.7055 3073.89870
981.8759 3074.71788
982.0464 3067.61143
982.2168 3040.96736
982.3872 3065.29723
982.5576 3060.21826
982.7280 3045.78008
982.8984 3061.20129
983.0687 3062.61439
983.2391 3057.35111
983.4094 3038.55075
983.5797 3017.21092
983.7500 3009.63344
983.9203 2985.42645
984.0906 3002.81370
984.2608 2975.96483
984.4311 2978.89342
984.6013 2960.27739
984.7715 2993.96647
984.9417 3002.30171
985.1119 2998.92256
985.2820 2951.59400
985.4522 2928.92299
985.6223 2946.67888
985.7924 2949.09548
985.9625 2969.08365
986.1326 2977.07073
986.3027 2962.87831
986.4727 2956.55009
986.6428 2962.53015
986.8128 2960.89178
986.9828 2929.98793
987.1528 2905.96526
987.3228 2909.09865
987.4928 2911.94533
987.6627 2916.63517
987.8327 2896.56508
988.0026 2912.98979
988.1725 2915.46783
988.3424 2891.85475
988.5123 2893.71840
988.6821 2884.89166
988.8520 2877.17082
989.0218 2845.09963
989.1916 2856.75257
989.3614 2825.50057
989.5312 2823.00204
989.7010 2801.35501
989.8707 2817.86164
990.0405 2817.18581
990.2102 2834.77786
990.3799 2822.89965
990.5496 2819.35666
990.7193 2799.10225
990.8890 2803.97641
991.0586 2791.83196
991.2283 2787.46979
991.3979 2790.39838
991.5675 2797.73011
991.7371 2787.38787
991.9067 2779.05263
992.0762 2745.97794
992.2458 2758.18383
992.4153 2786.26148
992.5848 2782.94377
992.7543 2770.67644
992.9238 2747.69823
993.0933 2748.80414
993.2627 2747.55488
993.4322 2718.94475
993.6016 2743.39750
993.7710 2716.05712
993.9404 2725.62113
994.1098 2694.55344
994.2792 2716.73295
994.4485 2705.26432
994.6179 2719.84586
994.7872 2720.56265
994.9565 2715.83184
995.1258 2714.58258
995.2951 2714.58258
995.4643 2733.89492
995.6336 2741.73864
995.8028 2726.95231
995.9720 2700.32872
996.1412 2690.37559
996.3104 2696.27374
996.4796 2713.49715
996.6487 2704.07650
996.8179 2702.25381
996.9870 2693.59090
997.1561 2664.34590
997.3252 2660.68004
997.4943 2640.71235
997.6634 2634.13837
997.8324 2641.77729
998.0014 2637.16936
998.1705 2634.34316
998.3395 2616.50535
998.5085 2592.50316
998.6774 2600.55168
998.8464 2590.29135
999.0153 2587.50612
999.1843 2601.63710
999.3532 2592.09357
999.5221 2571.92108
999.6910 2580.27679
999.8599 2592.76940
1000.0287 2614.41643
1000.1976 2614.00683
1000.3664 2619.59779
1000.5352 2623.48893
1000.7040 2620.49889
1000.8728 2610.75056
1001.0415 2567.78418
1001.2103 2550.97035
1001.3790 2558.22016
1001.5478 2535.71299
1001.7165 2536.98273
1001.8851 2529.54860
1002.0538 2541.54970
1002.2225 2538.55966
1002.3911 2541.44730
1002.5598 2523.83477
1002.7284 2509.88810
1002.8970 2498.11228
1003.0656 2503.80563
1003.2341 2472.43075
1003.4027 2482.95731
1003.5712 2452.36066
1003.7398 2465.61102
1003.9083 2461.22836
1004.0768 2448.12136
1004.2453 2446.89258
1004.4137 2468.41673
1004.5822 2459.89718
1004.7506 2472.41027
1004.9190 2445.43852
1005.0874 2444.31214
1005.2558 2452.93409
1005.4242 2442.30513
1005.5926 2449.45254
1005.7609 2430.46787
1005.9292 2429.95588
1006.0976 2445.49996
1006.2659 2448.24424
1006.4342 2459.61047
1006.6024 2440.21620
1006.7707 2445.33613
1006.9389 2429.44389
1007.1071 2425.88042
1007.2754 2430.16068
1007.4436 2411.31937
1007.6117 2426.59721
1007.7799 2409.37380
1007.9481 2404.66347
1008.1162 2402.18543
1008.2843 2396.51255
1008.4524 2407.34631
1008.6205 2392.51901
1008.7886 2408.80036
1008.9566 2390.69632
1009.1247 2382.13581
1009.2927 2380.25168
1009.4607 2378.79762
1009.6287 2353.99672
1009.7967 2359.83343
1009.9647 2352.31739
1010.1327 2335.87220
1010.3006 2313.42646
1010.4685 2313.71317
1010.6364 2318.28015
1010.8043 2318.01391
1010.9722 2302.87942
1011.1401 2294.64659
1011.3079 2278.67243
1011.4758 2305.02979
1011.6436 2282.80933
1011.8114 2299.72555
1011.9792 2292.08662
1012.1470 2308.38846
1012.3147 2308.24510
1012.4825 2306.13569
1012.6502 2315.80210
1012.8179 2309.96539
1012.9856 2297.02223
1013.1533 2299.00876
1013.3210 2248.93592
1013.4886 2267.61340
1013.6563 2260.22023
1013.8239 2261.65381
1013.9915 2269.41561
1014.1591 2258.49994
1014.3267 2270.29624
1014.4942 2286.47519
1014.6618 2271.58646
1014.8293 2281.08903
1014.9969 2264.62336
1015.1644 2278.95915
1015.3319 2271.52502
1015.4993 2252.27411
1015.6668 2234.31343
1015.8342 2225.32284
1016.0017 2228.94775
1016.1691 2247.80954
1016.3365 2229.17303
1016.5039 2232.30642
1016.6712 2218.46215
1016.8386 2227.49369
1017.0059 2226.36731
1017.1733 2241.58372
1017.3406 2219.60901
1017.5079 2223.45919
1017.6752 2203.92157
1017.8424 2191.03985
1018.0097 2187.96789
1018.1769 2202.93855
1018.3441 2188.88948
1018.5113 2197.71622
1018.6785 2181.39391
1018.8457 2191.51088
1019.0129 2173.09964
1019.1800 2188.39797
1019.3471 2183.74908
1019.5142 2188.23413
1019.6813 2173.36588
1019.8484 2168.26643
1020.0155 2172.54669
1020.1826 2157.20740
1020.3496 2157.10500
1020.5166 2142.48251
1020.6836 2142.56443
1020.8506 2144.91959
1021.0176 2130.58381
1021.1846 2146.90612
1021.3515 2129.27311
1021.5185 2157.24836
1021.6854 2138.73473
1021.8523 2148.01202
1022.0192 2146.47605
1022.1861 2132.40650
1022.3529 2124.31702
1022.5198 2142.33915
1022.6866 2129.55982
1022.8534 2136.64580
1023.0202 2119.93437
1023.1870 2114.24102
1023.3538 2107.70800
1023.5205 2118.93087
1023.6873 2102.40376
1023.8540 2110.30892
1024.0207 2097.30432
1024.1874 2104.59509
1024.3541 2108.52719
1024.5207 2110.65707
1024.6874 2085.54898
1024.8540 2096.42369
1025.0206 2067.60877
1025.1872 2082.72278
1025.3538 2074.85858
1025.5204 2079.48699
1025.6870 2076.57887
1025.8535 2066.23663
1026.0201 2061.77206
1026.1866 2070.12777
1026.3531 2049.81192
1026.5196 2058.16763
1026.6860 2072.79013
1026.8525 2079.48699
1027.0189 2042.64403
1027.1853 2058.16763
1027.3518 2050.11912
1027.5181 2052.53572
1027.6845 2057.90140
1027.8509 2036.60252
1028.0172 2033.46913
1028.1836 2022.38962
1028.3499 2022.41010
1028.5162 2025.76877
1028.6825 2020.17781
1028.8488 2010.69572
1029.0150 2008.38151
1029.1813 2010.96195
1029.3475 1992.59167
1029.5137 2013.87007
1029.6799 1999.37045
1029.8461 1999.14518
1030.0123 1988.70053
1030.1784 1991.34241
1030.3446 1992.07968
1030.5107 1998.83798
1030.6768 1987.32840
1030.8429 1993.28798
1031.0090 1976.61752
1031.1750 1989.90884
1031.3411 1989.15109
1031.5071 1997.30200
1031.6732 1977.35479
1031.8392 1981.34833
1032.0051 1967.46310
1032.1711 1976.51512
1032.3371 1959.31218
1032.5030 1955.89208
1032.6690 1959.47602
1032.8349 1963.22380
1033.0008 1956.89558
1033.1667 1958.16532
1033.3325 1949.07234
1033.4984 1946.63526
1033.6642 1947.84356
1033.8300 1959.98801
1033.9959 1939.83600
1034.1616 1950.75167
1034.3274 1940.47087
1034.4932 1949.60481
1034.6589 1926.36037
1034.8247 1938.64818
1034.9904 1932.31995
1035.1561 1935.63766
1035.3218 1922.01867
1035.4875 1935.51479
1035.6531 1921.32236
1035.8188 1939.48785
1035.9844 1917.43122
1036.1500 1927.79394
1036.3156 1906.63843
1036.4812 1910.32477
1036.6468 1905.06149
1036.8123 1906.96610
1036.9779 1897.40209
1037.1434 1914.64598
1037.3089 1905.92164
1037.4744 1899.88013
1037.6399 1901.57994
1037.8053 1900.96555
1037.9708 1894.04342
1038.1362 1910.69340
1038.3016 1895.19028
1038.4670 1909.56702
1038.6324 1898.05744
1038.7978 1867.68606
1038.9632 1877.90543
1039.1285 1888.12479
1039.2938 1870.90137
1039.4592 1876.92240
1039.6245 1862.79142
1039.7897 1875.50930
1039.9550 1862.40230
1040.1203 1877.31151
1040.2855 1861.43976
1040.4507 1878.49934
1040.6159 1859.49419
1040.7811 1860.92776
1040.9463 1864.94178
1041.1115 1865.96577
1041.2766 1851.75286
1041.4418 1850.54456
1041.6069 1831.94901
1041.7720 1834.16081
1041.9371 1838.03147
1042.1021 1838.99402
1042.2672 1827.36156
1042.4323 1838.54347
1042.5973 1833.62834
1042.7623 1828.59034
1042.9273 1820.82854
1043.0923 1826.37853
1043.2572 1820.48038
1043.4222 1805.22301
1043.5871 1802.60161
1043.7521 1813.06673
1043.9170 1838.21579
1044.0819 1807.37338
1044.2467 1805.96028
1044.4116 1805.65309
1044.5765 1797.48169
1044.7413 1797.91177
1044.9061 1801.31139
1045.0709 1806.26748
1045.2357 1791.66546
1045.4005 1782.63392
1045.5652 1781.73281
1045.7300 1776.05994
1045.8947 1773.62286
1046.0594 1766.70072
1046.2241 1770.81714
1046.3888 1782.44960
1046.5535 1771.00146
1046.7181 1770.69426
1046.8828 1757.77158
1047.0474 1761.15073
1047.2120 1753.88044
1047.3766 1756.44040
1047.5412 1751.54575
1047.7057 1752.32398
1047.8703 1747.10166
1048.0348 1750.05074
1048.1993 1744.74650
1048.3639 1759.92195
1048.5283 1736.61606
1048.6928 1732.41773
1048.8573 1728.05555
1049.0217 1728.17843
1049.1861 1726.68341
1049.3506 1733.97418
1049.5150 1715.70630
1049.6793 1732.64300
1049.8437 1721.93213
1050.0081 1734.77289
1050.1724 1711.87660
1050.3367 1713.88361
1050.5010 1710.68878
1050.6653 1718.59394
1050.8296 1712.65483
1050.9939 1715.99302
1051.1581 1700.55133
1051.3224 1698.05281
1051.4866 1697.64322
1051.6508 1707.12531
1051.8150 1695.04230
1051.9791 1682.71352
1052.1433 1694.12071
1052.3074 1682.38585
1052.4716 1676.93825
1052.6357 1676.01667
1052.7998 1690.63916
1052.9639 1685.56020
1053.1279 1675.52515
1053.2920 1681.07515
1053.4560 1668.80782
1053.6201 1675.32036
1053.7841 1664.46612
1053.9481 1664.60948
1054.1120 1667.70191
1054.2760 1665.03955
1054.4399 1660.57498
1054.6039 1665.24435
1054.7678 1647.61134
1054.9317 1659.42812
1055.0956 1645.66577
1055.2595 1649.96650
1055.4233 1635.30305
1055.5872 1635.52832
1055.7510 1620.61911
1055.9148 1641.42647
1056.0786 1631.94438
1056.2424 1651.03145
1056.4062 1613.41026
1056.5699 1632.45637
1056.7336 1617.91579
1056.8974 1622.83092
1057.0611 1604.11248
1057.2248 1610.99366
1057.3885 1604.50160
1057.5521 1610.01063
1057.7158 1606.22189
1057.8794 1606.63148
1058.0430 1602.69938
1058.2066 1606.75436
1058.3702 1594.85566
1058.5338 1600.13942
1058.6973 1600.63094
1058.8609 1598.09145
1059.0244 1585.88556
1059.1879 1603.21138
1059.3514 1578.36952
1059.5149 1587.56490
1059.6784 1581.17523
1059.8418 1583.20272
1060.0053 1575.58428
1060.1687 1571.36546
1060.3321 1565.52875
1060.4955 1562.12912
1060.6589 1567.96583
1060.8222 1573.74111
1060.9856 1565.89739
1061.1489 1574.56029
1061.3122 1561.53521
1061.4755 1562.64112
1061.6388 1558.36086
1061.8021 1568.66214
1061.9654 1554.28540
1062.1286 1552.99518
1062.2918 1541.56752
1062.4550 1554.08061
1062.6182 1542.55054
1062.7814 1550.82434
1062.9446 1552.05312
1063.1077 1543.10349
1063.2709 1532.47454
1063.4340 1536.03800
1063.5971 1528.19428
1063.7602 1539.66291
1063.9233 1529.91458
1064.0863 1532.35166
1064.2494 1516.17270
1064.4124 1535.17785
1064.5754 1523.01292
1064.7384 1526.10535
1064.9014 1511.87197
1065.0644 1521.00591
1065.2274 1503.82345
1065.3903 1511.46238
1065.5532 1502.02124
1065.7162 1512.26108
1065.8790 1505.13415
1066.0419 1504.80648
1066.2048 1508.94337
1066.3677 1508.65666
1066.5305 1503.08618
1066.6933 1498.06866
1066.8561 1481.09100
1067.0189 1488.34081
1067.1817 1481.54155
1067.3445 1478.71536
1067.5072 1476.56499
1067.6699 1482.29930
1067.8327 1475.19285
1067.9954 1481.99211
1068.1580 1474.94709
1068.3207 1467.69728
1068.4834 1465.87459
1068.6460 1474.84470
1068.8086 1458.31759
1068.9713 1465.60836
1069.1339 1458.91150
1069.2964 1467.02145
1069.4590 1447.27904
1069.6216 1456.06482
1069.7841 1455.88050
1069.9466 1447.79103
1070.1091 1456.98641
1070.2716 1454.24213
1070.4341 1454.20117
1070.5966 1456.67921
1070.7590 1445.06723
1070.9214 1447.05376
1071.0839 1441.68808
1071.2463 1442.26151
1071.4086 1441.56520
1071.5710 1423.13348
1071.7334 1422.68293
1071.8957 1430.56761
1072.0580 1422.74437
1072.2204 1425.48865
1072.3827 1422.94917
1072.5449 1423.50212
1072.7072 1411.70582
1072.8695 1414.51154
1073.0317 1411.97205
1073.1939 1404.02594
1073.3561 1409.08442
1073.5183 1417.39917
1073.6805 1398.06635
1073.8427 1405.80767
1074.0048 1399.45897
1074.1669 1406.77021
1074.3291 1399.39753
1074.4912 1406.60638
1074.6532 1391.08277
1074.8153 1394.81008
1074.9774 1384.05824
1075.1394 1395.50639
1075.3014 1397.86155
1075.4635 1395.81358
1075.6255 1378.89736
1075.7874 1385.38942
1075.9494 1379.55271
1076.1114 1382.80898
1076.2733 1376.84939
1076.4352 1384.67263
1076.5971 1370.80788
1076.7590 1372.24146
1076.9209 1359.89221
1077.0828 1366.17947
1077.2446 1363.66047
1077.4064 1365.87228
1077.5683 1349.85716
1077.7301 1363.66047
1077.8918 1350.63539
1078.0536 1352.51952
1078.2154 1351.41362
1078.3771 1351.06546
1078.5388 1342.73023
1078.7006 1350.51251
1078.8623 1342.81215
1079.0239 1353.70734
1079.1856 1344.86012
1079.3473 1351.67985
1079.5089 1340.23171
1079.6705 1339.16677
1079.8321 1332.85902
1079.9937 1342.64831
1080.1553 1330.97489
1080.3169 1340.04739
1080.4784 1326.85847
1080.6399 1338.08134
1080.8014 1332.87950
1080.9629 1332.36751
1081.1244 1327.00183
1081.2859 1332.30607
1081.4474 1310.72048
1081.6088 1320.75553
1081.7702 1314.91882
1081.9316 1323.92988
1082.0930 1318.87140
1082.2544 1317.45830
1082.4158 1309.30738
1082.5771 1325.75257
1082.7385 1305.68248
1082.8998 1322.96733
1083.0611 1303.47067
1083.2224 1308.28340
1083.3837 1301.75038
1083.5449 1302.87676
1083.7062 1298.88322
1083.8674 1296.87621
1084.0286 1290.79374
1084.1898 1299.55905
1084.3510 1291.12142
1084.5122 1300.95167
1084.6734 1279.48896
1084.8345 1293.76330
1084.9956 1284.26072
1085.1567 1285.10039
1085.3178 1280.49246
1085.4789 1290.13839
1085.6400 1278.03490
1085.8010 1283.87161
1085.9621 1282.31515
1086.1231 1280.43102
1086.2841 1262.63417
1086.4451 1281.35261
1086.6061 1269.22863
1086.7670 1280.90205
1086.9280 1278.64929
1087.0889 1274.32807
1087.2498 1268.53232
1087.4107 1267.63122
1087.5716 1272.97642
1087.7325 1260.29949
1087.8933 1260.58620
1088.0542 1289.60592
1088.2150 1259.13215
1088.3758 1269.16719
1088.5366 1256.59267
1088.6974 1264.47735
1088.8582 1265.15318
1089.0189 1265.52181
1089.1796 1263.53528
1089.3404 1269.41295
1089.5011 1257.94432
1089.6618 1273.79560
1089.8224 1257.47329
1089.9831 1263.47384
1090.1438 1250.77643
1090.3044 1264.23159
1090.4650 1271.58380
1090.6256 1263.06425
1090.7862 1260.52477
1090.9468 1262.79801
1091.1073 1254.66757
1091.2679 1258.68159
1091.4284 1259.19359
1091.5889 1267.91793
1091.7494 1257.67809
1091.9099 1257.08418
1092.0703 1254.68805
1092.2308 1262.14266
1092.3912 1252.25097
1092.5516 1265.62421
1092.7121 1244.46869
1092.8724 1262.63417
1093.0328 1250.18252
1093.1932 1258.33344
1093.3535 1242.40024
1093.5139 1261.40539
1093.6742 1256.28547
1093.8345 1257.26850
1093.9948 1248.52367
1094.1550 1256.30595
1094.3153 1243.99766
1094.4755 1257.47329
1094.6358 1254.25798
1094.7960 1260.19709
1094.9562 1244.46869
1095.1163 1256.98178
1095.2765 1251.51370
1095.4367 1246.39378
1095.5968 1247.78640
1095.7569 1264.86646
1095.9170 1247.00817
1096.0771 1257.14562
1096.2372 1254.31942
1096.3973 1260.89340
1096.5573 1252.53769
1096.7173 1253.80743
1096.8773 1259.66462
1097.0374 1253.93031
1097.1973 1254.89285
1097.3573 1259.15263
1097.5173 1244.22293
1097.6772 1255.01573
1097.8371 1239.77884
1097.9970 1249.21998
1098.1569 1255.07717
1098.3168 1248.93326
1098.4767 1247.39729
1098.6365 1254.74949
1098.7964 1256.30595
1098.9562 1256.79746
1099.1160 1240.31131
1099.2758 1260.60668
1099.4356 1244.65301
1099.5953 1260.29949
1099.7551 1249.07662
1099.9148 1259.13215
1100.0745 1254.74949
1100.2342 1247.78640
1100.3939 1254.68805
1100.5536 1257.04322
1100.7132 1248.05264
1100.8729 1261.75355
1101.0325 1248.11407
1101.1921 1256.57219
1101.3517 1245.88179
1101.5113 1263.61720
1101.6709 1240.35227
1101.8304 1246.18898
1101.9899 1245.55411
1102.1495 1265.37845
1102.3090 1239.75836
1102.4685 1260.11517
1102.6279 1245.65651
1102.7874 1254.70853
1102.9468 1249.60909
1103.1063 1244.26389
1103.2657 1248.58511
1103.4251 1252.39433
1103.5845 1243.91574
1103.7438 1253.76647
1103.9032 1252.47625
1104.0625 1253.07016
1104.2219 1238.87774
1104.3812 1258.23104
1104.5405 1250.05965
1104.6997 1249.60909
1104.8590 1247.86832
1105.0183 1252.18953
1105.1775 1249.32238
1105.3367 1254.27846
1105.4959 1246.31186
1105.6551 1257.26850
1105.8143 1246.04563
1105.9735 1250.20300
1106.1326 1247.37681
1106.2917 1254.68805
1106.4508 1247.39729
1106.6099 1253.99175
1106.7690 1244.93972
1106.9281 1249.26094
1107.0872 1250.28492
1107.2462 1251.00171
1107.4052 1250.26444
1107.5642 1248.95374
1107.7232 1251.08363
1107.8822 1255.15909
1108.0412 1244.53013
1108.2001 1250.63308
1108.3591 1240.55707
1108.5180 1247.80688
1108.6769 1247.76592
1108.8358 1253.66407
1108.9947 1247.29489
1109.1535 1249.93677
1109.3124 1249.56813
1109.4712 1257.41185
1109.6300 1248.56463
1109.7888 1250.87883
1109.9476 1244.67349
1110.1064 1252.53769
1110.2651 1246.12755
1110.4239 1254.48326
1110.5826 1241.08954
1110.7413 1253.19304
1110.9000 1251.61610
1111.0587 1248.89230
1111.2173 1245.96371
1111.3760 1249.19950
1111.5346 1247.31537
1111.6932 1249.32238
1111.8518 1243.36279
1112.0104 1256.28547
1112.1690 1254.60614
1112.3276 1254.95429
1112.4861 1239.04157
1112.6446 1251.73898
1112.8032 1256.51075
1112.9617 1257.45281
1113.1201 1253.66407
1113.2786 1254.27846
1113.4371 1241.92921
1113.5955 1255.42532
1113.7539 1239.75836
1113.9123 1256.51075
1114.0707 1249.34286
1114.2291 1253.13160
1114.3875 1246.10707
1114.5458 1256.73602
1114.7042 1239.00061
1114.8625 1248.81038
1115.0208 1247.64304
1115.1791 1265.23509
1115.3374 1244.73493
1115.4956 1258.74303
1115.6539 1245.65651
1115.8121 1250.16204
1115.9703 1250.98123
1116.1285 1250.22348
1116.2867 1247.31537
1116.4449 1259.25502
1116.6030 1250.94027
1116.7612 1252.61961
1116.9193 1238.24287
1117.0774 1253.29544
1117.2355 1247.00817
1117.3936 1250.34636
1117.5516 1251.10411
1117.7097 1250.85835
1117.8677 1247.33585
1118.0257 1253.33640
1118.1837 1246.16850
1118.3417 1255.67108
1118.4997 1259.82846
1118.6577 1248.54415
1118.8156 1247.84784
1118.9735 1247.33585
1119.1315 1252.47625
1119.2894 1266.64819
1119.4472 1246.47570
1119.6051 1252.92680
1119.7630 1243.54710
1119.9208 1249.03566
1120.0786 1244.22293
1120.2364 1256.77698
1120.3942 1249.19950
1120.5520 1256.22403
1120.7098 1253.54119
1120.8675 1260.13565
1121.0253 1250.98123
1121.1830 1254.87237
1121.3407 1249.85485
1121.4984 1248.56463
1121.6560 1254.25798
