# Averages = 100
# wavelength [µm]	intensity
446.8250 14.33578
447.0374 36746.70328
447.2498 1227.14287
447.4621 1226.22129
447.6745 1231.17737
447.8868 1241.29434
448.0992 1245.86131
448.3115 1239.71740
448.5238 1249.93677
448.7360 1243.66998
448.9483 1248.64655
449.1606 1243.58806
449.3728 1262.40890
449.5850 1233.73733
449.7972 1242.70744
450.0094 1236.50209
450.2216 1252.37385
450.4337 1251.94378
450.6459 1673.70246
450.8580 2000.74259
451.0701 2025.95309
451.2822 2053.60066
451.4943 2043.31986
451.7064 2031.17541
451.9184 2011.47395
452.1305 2078.70876
452.3425 2189.97490
452.5545 2121.42939
452.7665 2108.32239
452.9785 2224.97469
453.1905 2236.77099
453.4024 2182.54078
453.6143 2270.17336
453.8263 2269.16985
454.0382 2368.98785
454.2501 2225.15901
454.4619 2213.71086
454.6738 2349.73695
454.8856 2414.69851
455.0975 2270.03000
455.3093 2273.16339
455.5211 2350.80189
455.7329 2310.88698
455.9446 2350.18750
456.1564 2348.99968
456.3681 2403.65996
456.5798 2469.19496
456.7916 2414.43228
457.0033 2412.42527
457.2149 2365.64966
457.4266 2402.36974
457.6382 2464.42320
457.8499 2422.66511
458.0615 2531.39177
458.2731 2451.25476
458.4847 2538.88734
458.6963 2552.71113
458.9078 2582.14044
459.1194 2722.93829
459.3309 2750.27867
459.5424 2597.33637
459.7539 2500.73368
459.9654 2550.27405
460.1769 2611.52879
460.3883 2608.41588
460.5998 2463.39921
460.8112 2457.05051
461.0226 2517.48607
461.2340 2630.94353
461.4454 2569.36111
461.6567 2520.55802
461.8681 2506.52943
462.0794 2472.04164
462.2907 2593.30187
462.5020 2660.84388
462.7133 2750.68827
462.9246 2817.67733
463.1359 2662.27746
463.3471 2428.97286
463.5583 2498.64475
463.7696 2809.91552
463.9808 2691.13334
464.1919 2577.12292
464.4031 2587.79283
464.6143 2735.34898
464.8254 2582.55003
465.0365 2543.78198
465.2476 2648.39223
465.4587 2702.49956
465.6698 2544.51925
465.8809 2522.54455
466.0919 2537.57664
466.3030 2692.79219
466.5140 2660.12709
466.7250 2557.74913
466.9360 2607.84245
467.1469 2544.27350
467.3579 2461.43316
467.5688 2455.53501
467.7798 2559.48990
467.9907 2741.18569
468.2016 2553.28456
468.4125 2541.28346
468.6233 2437.94296
468.8342 2449.88262
469.0450 2704.62945
469.2559 2711.16247
469.4667 2681.01637
469.6775 2488.32299
469.8882 2521.50008
470.0990 2559.01887
470.3098 2706.63646
470.5205 2589.04209
470.7312 2715.11505
470.9419 2817.37013
471.1526 2652.40625
471.3633 2528.97517
471.5739 2596.18950
471.7846 2554.45190
471.9952 2401.89871
472.2058 2464.97615
472.4164 2447.44553
472.6270 2495.16321
472.8376 2538.64158
473.0481 2676.01933
473.2587 2714.58258
473.4692 2651.25938
473.6797 2594.89928
473.8902 2527.62351
474.1007 2451.54147
474.3111 2421.98928
474.5216 2385.98599
474.7320 2496.55583
474.9424 2622.75166
475.1528 2689.63832
475.3632 2514.25028
475.5736 2520.33274
475.7840 2473.24994
475.9943 2493.75011
476.2046 2530.79786
476.4149 2549.02478
476.6252 2636.65737
476.8355 2757.22129
477.0458 2780.32237
477.2561 2811.34910
477.4663 2703.31875
477.6765 2643.57950
477.8867 2580.11295
478.0969 2616.89447
478.3071 2622.09631
478.5173 2579.70336
478.7274 2653.75791
478.9375 2796.13269
479.1477 2795.27255
479.3578 2781.05964
479.5679 2873.56639
479.7779 2739.71115
479.9880 2691.89108
480.1980 2760.84619
480.4081 2834.08155
480.6181 2753.06391
480.8281 2667.21306
481.0381 2786.28196
481.2480 2823.78027
481.4580 2752.20376
481.6679 2757.77424
481.8778 2703.52355
482.0877 2772.17146
482.2976 2796.62421
482.5075 2847.51623
482.7174 2820.81072
482.9272 2809.60833
483.1371 2763.79527
483.3469 2790.95133
483.5567 2866.68522
483.7665 2884.35919
483.9762 2883.84720
484.1860 2854.74556
484.3957 2896.29885
484.6055 2840.61458
484.8152 2872.99296
485.0249 2912.98979
485.2346 2895.95069
485.4442 2917.76156
485.6539 2977.62368
485.8635 2971.54122
486.0732 2908.62762
486.2828 2942.56246
486.4924 2945.24530
486.7019 2929.25066
486.9115 2962.73495
487.1210 2997.91905
487.3306 3014.11849
487.5401 3043.79355
487.7496 3062.69631
487.9591 3134.43665
488.1686 3119.95751
488.3780 3066.07545
488.5875 3094.56270
488.7969 3106.48188
489.0063 3100.89092
489.2157 3149.22299
489.4251 3144.47170
489.6345 3153.58516
489.8438 3154.79346
490.0531 3153.35988
490.2625 3180.80266
490.4718 3155.69457
490.6811 3206.11556
490.8903 3251.04799
491.0996 3254.98009
491.3089 3246.41958
491.5181 3285.16715
491.7273 3303.25072
491.9365 3294.03486
492.1457 3347.22060
492.3549 3335.52670
492.5640 3334.29792
492.7732 3369.31819
492.9823 3373.96708
493.1914 3448.94321
493.4005 3440.93565
493.6096 3408.53679
493.8187 3416.93346
494.0277 3475.99688
494.2368 3475.23913
494.4458 3510.07508
494.6548 3551.36213
494.8638 3581.22151
495.0728 3536.67819
495.2817 3579.58314
495.4907 3563.64994
495.6996 3618.86318
495.9085 3624.84325
496.1174 3654.66167
496.3263 3662.83307
496.5352 3698.11957
496.7440 3702.01071
496.9529 3736.15035
497.1617 3759.21048
497.3705 3751.91971
497.5793 3821.98072
497.7881 3786.69422
497.9969 3849.75118
498.2056 3854.05191
498.4144 3878.54562
498.6231 3912.66478
498.8318 3918.64485
499.0405 3964.90846
499.2492 3900.88896
499.4578 3987.94811
499.6665 3987.39516
499.8751 4060.38476
500.0837 4079.02128
500.2923 4092.96795
500.5009 4071.68955
500.7095 4145.15019
500.9180 4157.23320
501.1266 4200.32247
501.3351 4219.98297
501.5436 4267.49584
501.7521 4255.74050
501.9606 4312.98123
502.1691 4304.80983
502.3775 4331.14671
502.5860 4360.88322
502.7944 4386.72858
503.0028 4454.96690
503.2112 4480.09548
503.4196 4464.40804
503.6279 4557.01718
503.8363 4493.44823
504.0446 4613.74592
504.2529 4625.58318
504.4612 4669.57355
504.6695 4682.02520
504.8778 4695.27555
505.0860 4737.01316
505.2943 4742.17404
505.5025 4821.12323
505.7107 4821.96290
505.9189 4900.70730
506.1271 4923.86983
506.3353 4944.08328
506.5434 4930.09565
506.7516 5014.69724
506.9597 5018.93654
507.1678 5052.93282
507.3759 5096.80031
507.5840 5094.93666
507.7920 5147.52849
508.0001 5148.02001
508.2081 5274.01104
508.4161 5238.45831
508.6241 5296.12911
508.8321 5298.48427
509.0401 5366.57923
509.2480 5403.17643
509.4560 5400.88271
509.6639 5471.72195
509.8718 5507.06989
510.0797 5532.60806
510.2876 5524.02707
510.4955 5697.10091
510.7033 5705.35422
510.9112 5768.43166
511.1190 5771.58553
511.3268 5743.28260
511.5346 5838.92274
511.7424 5855.24505
511.9501 5942.69332
512.1579 5977.01728
512.3656 6008.69935
512.5733 6007.57297
512.7810 6118.69575
512.9887 6170.79608
513.1964 6212.22649
513.4040 6219.72205
513.6117 6266.86629
513.8193 6316.14042
514.0269 6350.71013
514.2345 6446.24788
514.4421 6435.12741
514.6497 6505.27034
514.8572 6563.55553
515.0647 6587.59868
515.2723 6667.89953
515.4798 6686.49509
515.6873 6759.38230
515.8947 6759.44374
516.1022 6799.27673
516.3097 6852.91303
516.5171 6958.40390
516.7245 6959.44837
516.9319 7024.12322
517.1393 7074.23701
517.3467 7146.75559
517.5540 7164.83915
517.7614 7246.12303
517.9687 7205.77805
518.1760 7291.48554
518.3833 7363.61500
518.5906 7385.77402
518.7978 7526.79715
519.0051 7486.34977
519.2123 7636.71163
519.4196 7563.74250
519.6268 7671.03559
519.8340 7715.80418
520.0411 7808.45429
520.2483 7876.93837
520.4554 7900.81768
520.6626 7980.91374
520.8697 8018.39157
521.0768 8148.66286
521.2839 8165.21045
521.4909 8234.82090
521.6980 8383.58535
521.9050 8413.19898
522.1121 8469.86628
522.3191 8525.93966
522.5261 8570.25771
522.7331 8669.27700
522.9400 8814.33462
523.1470 8816.03444
523.3539 8878.86612
523.5608 8915.64764
523.7677 8974.24002
523.9746 9035.94532
524.1815 9124.17181
524.3884 9204.34979
524.5952 9155.30094
524.8020 9349.18214
525.0089 9287.00581
525.2157 9387.78635
525.4225 9467.86193
525.6292 9501.85821
525.8360 9565.09949
526.0427 9692.48314
526.2494 9751.38272
526.4562 9827.34188
526.6629 9823.88082
526.8695 9880.36380
527.0762 10050.67288
527.2829 10055.28081
527.4895 10256.78045
527.6961 10314.30789
527.9027 10398.92996
528.1093 10370.87279
528.3159 10452.60722
528.5224 10501.61512
528.7290 10720.23578
528.9355 10667.54154
529.1420 10890.99541
529.3485 10798.24291
529.5550 10996.24053
529.7615 10949.93595
529.9680 11130.58728
530.1744 11171.54665
530.3808 11244.27002
530.5872 11219.18241
530.7936 11350.12953
531.0000 11426.80548
531.2064 11495.71963
531.4127 11554.74209
531.6191 11660.58111
531.8254 11662.23997
532.0317 11793.28949
532.2380 11781.22695
532.4443 11986.61774
532.6505 11821.05994
532.8568 12060.22173
533.0630 12239.95147
533.2692 12203.10851
533.4754 12292.83002
533.6816 12503.48409
533.8878 12437.72381
534.0939 12646.65758
534.3001 12628.88122
534.5062 12692.06105
534.7123 12766.17704
534.9184 12775.86393
535.1245 12810.45412
535.3306 12885.04115
535.5366 13021.76354
535.7426 13169.70880
535.9487 13310.60905
536.1547 13193.21948
536.3607 13313.57861
536.5666 13304.87474
536.7726 13395.88647
536.9785 13513.91091
537.1845 13693.23105
537.3904 13601.07246
537.5963 13794.40071
537.8022 13815.45383
538.0080 13953.87604
538.2139 13993.87287
538.4197 14151.38214
538.6256 14124.45135
538.8314 14232.76842
539.0372 14239.54720
539.2430 14438.01585
539.4487 14217.26530
539.6545 14558.21114
539.8602 14469.08354
540.0659 14577.31868
540.2716 14837.10352
540.4773 14801.93990
540.6830 15064.71477
540.8887 15041.28600
541.0943 14969.09511
541.2999 14999.09785
541.5056 15017.36573
541.7112 15138.42116
541.9167 15093.30441
542.1223 15286.53026
542.3279 15302.81161
542.5334 15355.11674
542.7389 15608.65527
542.9444 15661.47238
543.1499 15739.17232
543.3554 15636.58956
543.5609 15833.44032
543.7663 15952.09963
543.9718 15805.83370
544.1772 16011.38832
544.3826 15979.91104
544.5880 16243.56654
544.7934 16266.29899
544.9987 16276.90747
545.2041 16560.75594
545.4094 16370.88876
545.6147 16470.64531
545.8200 16658.77172
546.0253 16643.51436
546.2306 16761.55927
546.4358 16670.09699
546.6411 16847.81972
546.8463 16858.36676
547.0515 17084.79018
547.2567 17081.04240
547.4619 17159.86872
547.6670 17271.36014
547.8722 17254.21864
548.0773 17545.93131
548.2824 17395.89712
548.4876 17359.29991
548.6926 17561.43443
548.8977 17697.15332
549.1028 17832.50357
549.3078 17806.10526
549.5129 17836.29232
549.7179 17845.01666
549.9229 17916.98228
550.1279 17871.59930
550.3328 17931.33855
550.5378 17774.75085
550.7427 17964.92523
550.9476 18012.15139
551.1526 17741.43040
551.3575 18052.72165
551.5623 18002.85361
551.7672 17904.87879
551.9720 18062.53142
552.1769 18018.07002
552.3817 18198.68039
552.5865 17981.86193
552.7913 18070.78474
552.9961 17969.55364
553.2008 18059.31611
553.4056 18240.04935
553.6103 18168.43189
553.8150 18361.28910
554.0197 18376.99702
554.2244 18229.58423
554.4291 18142.48412
554.6337 18348.57122
554.8384 18314.22678
555.0430 18243.73570
555.2476 18127.65683
555.4522 18033.45027
555.6568 18134.78376
555.8613 18164.64315
556.0659 18287.05024
556.2704 18036.31742
556.4750 18216.12908
556.6795 18182.31712
556.8839 18023.80433
557.0884 18172.50735
557.2929 18148.68947
557.4973 18037.71004
557.7018 17993.96543
557.9062 17978.89238
558.1106 17945.18281
558.3150 17851.61112
558.5193 17967.85383
558.7237 17913.62362
558.9280 17777.94569
559.1323 17688.30609
559.3367 17647.40816
559.5410 17657.97568
559.7452 17382.66724
559.9495 17622.30006
560.1537 17563.97391
560.3580 17458.72880
560.5622 17588.89769
560.7664 17615.48033
560.9706 17445.92899
561.1748 17515.45753
561.3789 17513.98299
561.5831 17409.98714
561.7872 17357.08811
561.9913 17368.41338
562.1954 17238.75647
562.3995 17293.62156
562.6036 17173.03716
562.8076 17001.49929
563.0117 17160.29879
563.2157 17065.45736
563.4197 17078.05237
563.6237 17002.99431
563.8277 16793.22087
564.0316 16633.21307
564.2356 16721.99252
564.4395 16673.33278
564.6434 16595.65333
564.8473 16699.46486
565.0512 16561.53417
565.2551 16515.49583
565.4590 16541.36168
565.6628 16473.75823
565.8666 16473.53295
566.0705 16343.79413
566.2743 16204.06122
566.4780 16119.11148
566.6818 16081.03974
566.8856 16145.83747
567.0893 15932.17289
567.2930 15854.24768
567.4967 15698.31534
567.7004 15768.39683
567.9041 15800.65234
568.1078 15664.03234
568.3114 15596.89993
568.5151 15563.21084
568.7187 15174.32205
568.9223 15343.21804
569.1259 15278.95278
569.3295 15360.35954
569.5330 15242.80613
569.7366 15126.35863
569.9401 15110.69167
570.1436 15015.05152
570.3471 15116.42598
570.5506 14986.13421
570.7541 14841.01514
570.9575 14850.10812
571.1609 14641.72730
571.3644 14681.82653
571.5678 14580.61591
571.7712 14567.71371
571.9746 14432.75257
572.1779 14240.57118
572.3813 14115.27645
572.5846 14222.99961
572.7879 14078.22870
572.9912 14169.56811
573.1945 14015.54038
573.3978 13853.15693
573.6010 13806.89332
573.8043 13884.85949
574.0075 13547.88671
574.2107 13542.78727
574.4139 13354.39462
574.6171 13337.92896
574.8203 13026.74010
575.0234 13067.57660
575.2266 12831.83492
575.4297 12783.70765
575.6328 12729.78464
575.8359 12648.19356
576.0390 12308.02595
576.2420 12270.28189
576.4451 12021.84280
576.6481 12043.20311
576.8512 12148.07959
577.0542 11797.09871
577.2571 11832.15993
577.4601 11697.50599
577.6631 11499.79508
577.8660 11402.88520
578.0689 11177.67008
578.2719 11157.27231
578.4748 11085.26573
578.6776 10886.36700
578.8805 10814.77002
579.0834 10634.20061
579.2862 10643.78511
579.4890 10621.89232
579.6918 10553.06009
579.8946 10283.97748
580.0974 10283.54740
580.3002 10116.92467
580.5029 9911.84108
580.7057 9957.28550
580.9084 9736.73975
581.1111 9756.27737
581.3138 9563.66591
581.5164 9457.99072
581.7191 9332.36832
581.9217 9263.61801
582.1244 9114.93548
582.3270 9015.64995
582.5296 9006.72081
582.7322 8935.20574
582.9347 8847.02020
583.1373 8688.75318
583.3398 8636.52997
583.5424 8533.23043
583.7449 8449.09987
583.9474 8347.95070
584.1498 8218.39620
584.3523 8212.68236
584.5548 8066.55979
584.7572 8010.54785
584.9596 7971.10397
585.1620 7955.15029
585.3644 7772.14380
585.5668 7704.43796
585.7691 7679.32986
585.9715 7566.93734
586.1738 7538.34769
586.3761 7417.29226
586.5784 7431.58708
586.7807 7368.22293
586.9830 7291.62890
587.1852 7195.27197
587.3875 7111.38717
587.5897 7101.53644
587.7919 7005.09759
587.9941 6917.01445
588.1963 6877.42722
588.3984 6794.85312
588.6006 6708.96131
588.8027 6746.60297
589.0048 6660.24013
589.2069 6629.76636
589.4090 6603.83907
589.6111 6569.57655
589.8131 6517.68103
590.0152 6508.26037
590.2172 6356.21917
590.4192 6406.14865
590.6212 6329.24742
590.8232 6225.70212
591.0252 6266.66150
591.2271 6225.25157
591.4291 6232.95193
591.6310 6158.83594
591.8329 6098.89190
592.0348 6083.94173
592.2367 6055.41352
592.4385 6060.67680
592.6404 6085.60058
592.8422 6009.39566
593.0440 6024.79639
593.2458 6045.39895
593.4476 5995.77667
593.6494 5992.33608
593.8512 6002.80120
594.0529 5970.70953
594.2546 5968.53869
594.4563 5928.11178
594.6580 5904.90830
594.8597 5874.53692
595.0614 5893.76735
595.2630 5902.81937
595.4647 5897.78137
595.6663 5842.58861
595.8679 5882.01201
596.0695 5930.77414
596.2711 5891.80130
596.4727 5897.59705
596.6742 5935.36159
596.8757 5916.68412
597.0773 5946.33870
597.2788 5914.24703
597.4802 5942.73428
597.6817 5980.45786
597.8832 5963.37780
598.0846 5975.87041
598.2860 5969.91082
598.4875 5942.18133
598.6889 6013.45064
598.8902 6055.14728
599.0916 6085.64154
599.2930 6046.93493
599.4943 6107.00185
599.6956 6134.40367
599.8969 6167.94940
600.0982 6169.28058
600.2995 6166.65918
600.5008 6280.79248
600.7020 6251.77276
600.9032 6296.62328
601.1045 6354.76511
601.3057 6334.28543
601.5068 6428.22575
601.7080 6454.41927
601.9092 6455.13606
602.1103 6564.16992
602.3115 6605.88704
602.5126 6638.79790
602.7137 6657.51633
602.9147 6685.40967
603.1158 6792.86659
603.3169 6852.44200
603.5179 6927.70485
603.7189 6931.43215
603.9199 7015.39887
604.1209 7018.10219
604.3219 7101.33164
604.5229 7175.26331
604.7238 7221.21973
604.9247 7297.89568
605.1257 7353.21132
605.3266 7432.09907
605.5275 7455.83503
605.7283 7519.81357
605.9292 7659.85368
606.1300 7600.33971
606.3309 7699.91195
606.5317 7809.99027
606.7325 7930.67707
606.9332 7977.90323
607.1340 8054.70205
607.3348 8113.11012
607.5355 8160.21340
607.7362 8305.66014
607.9369 8310.34999
608.1376 8457.10743
608.3383 8530.01512
608.5390 8656.35431
608.7396 8702.74080
608.9402 8835.06007
609.1409 8918.90391
609.3415 8906.92329
609.5421 9017.88224
609.7426 9129.74229
609.9432 9180.08136
610.1437 9210.65753
610.3443 9498.92962
610.5448 9540.07331
610.7453 9636.08208
610.9457 9658.30254
611.1462 9771.47330
611.3467 9844.36050
611.5471 10033.16274
611.7475 10026.48637
611.9479 10245.63950
612.1483 10172.15838
612.3487 10461.92548
612.5491 10429.38326
612.7494 10792.67243
612.9497 10700.39096
613.1501 10862.95872
613.3504 10953.29462
613.5506 11219.48960
613.7509 11219.01857
613.9512 11230.30288
614.1514 11356.08912
614.3516 11587.91918
614.5519 11594.04261
614.7521 11797.34446
614.9522 11837.62801
615.1524 11919.38292
615.3526 12141.85377
615.5527 12387.36426
615.7528 12349.88643
615.9529 12480.46492
616.1530 12668.34557
616.3531 12913.48743
616.5532 13054.83824
616.7532 13002.71743
616.9532 13143.96584
617.1533 13155.29110
617.3533 13338.35903
617.5532 13405.57336
617.7532 13558.06512
617.9532 13600.15087
618.1531 13936.40686
618.3530 13816.88741
618.5530 14056.66359
618.7528 14231.68300
618.9527 14369.32698
619.1526 14421.79594
619.3524 14484.38186
619.5523 14634.43653
619.7521 14762.10690
619.9519 14981.64915
620.1517 15121.27966
620.3515 15314.56695
620.5512 15413.46337
620.7510 15481.64025
620.9507 15542.85403
621.1504 15601.83553
621.3501 15808.70085
621.5498 16077.92683
621.7495 16163.28616
621.9492 16333.73860
622.1488 16273.79456
622.3484 16467.55288
622.5480 16510.74454
622.7476 16970.82072
622.9472 16790.90667
623.1468 16884.35548
623.3463 17471.13949
623.5459 17556.43739
623.7454 17544.92780
623.9449 17716.56806
624.1444 17858.92237
624.3439 18067.56943
624.5433 18080.75835
624.7428 18239.12777
624.9422 18237.32556
625.1416 18372.32766
625.3410 18425.75916
625.5404 18720.21611
625.7398 18778.74705
625.9391 18984.11736
626.1385 18858.14680
626.3378 19053.03151
626.5371 19499.46822
626.7364 19272.38944
626.9357 19473.88909
627.1350 19602.17385
627.3342 19739.20344
627.5335 19749.50472
627.7327 19981.76486
627.9319 20079.82160
628.1311 20626.48590
628.3303 20387.18075
628.5294 20473.52311
628.7286 20751.84207
628.9277 21053.09827
629.1268 21108.39343
629.3259 21364.10280
629.5250 21484.50289
629.7241 21574.14248
629.9231 21255.56046
630.1222 21789.28160
630.3212 21921.17078
630.5202 21813.75482
630.7192 22098.58632
630.9182 22044.78618
631.1171 22194.67701
631.3161 22277.02583
631.5150 22177.08496
631.7140 22456.57125
631.9129 22747.25994
632.1118 22899.38306
632.3106 22971.45108
632.5095 23175.67452
632.7083 23019.51690
632.9072 23218.55899
633.1060 23385.46844
633.3048 23165.29132
633.5036 23388.76567
633.7023 23602.61457
633.9011 24020.62547
634.0998 24275.47470
634.2986 24117.63775
634.4973 24447.34024
634.6960 24323.49957
634.8947 24460.85683
635.0933 24570.05452
635.2920 24665.57179
635.4906 24559.93756
635.6892 24904.69262
635.8878 25118.88967
636.0864 25351.74372
636.2850 25113.46255
636.4836 25259.29841
636.6821 25269.51777
636.8806 25595.16528
637.0792 25763.05776
637.2777 25796.54205
637.4761 25795.76382
637.6746 25924.74489
637.8731 26395.14284
638.0715 26202.75665
638.2699 26471.16344
638.4683 26431.02325
638.6667 26363.19452
638.8651 26594.08252
639.0635 26760.39806
639.2618 26806.64120
639.4602 26972.60858
639.6585 26849.23895
639.8568 27223.48476
640.0551 27174.10823
640.2534 27141.60697
640.4516 27430.53440
640.6499 27486.89450
640.8481 27887.80486
641.0463 27957.96827
641.2445 28266.12613
641.4427 28002.22487
641.6409 28137.18601
641.8390 28214.10772
642.0372 28451.24202
642.2353 28403.23763
642.4334 28418.86364
642.6315 28608.60794
642.8296 28569.32790
643.0277 28455.56324
643.2257 29168.85027
643.4237 29106.61250
643.6218 28962.64030
643.8198 29131.65916
644.0178 29302.19352
644.2157 29139.99439
644.4137 29272.47749
644.6116 30067.96999
644.8096 30254.82666
645.0075 29647.84968
645.2054 30023.32427
645.4033 29906.07806
645.6011 29900.87622
645.7990 29925.08321
645.9968 30276.71945
646.1947 30355.38193
646.3925 30622.31417
646.5903 30340.24744
646.7881 30736.83659
646.9858 30454.64697
647.1836 30472.93533
647.3813 30337.19596
647.5790 30513.46463
647.7767 31321.04015
647.9744 30771.57014
648.1721 30990.98951
648.3698 31449.98026
648.5674 31050.19628
648.7650 31357.57591
648.9627 31146.34842
649.1603 32001.60065
649.3578 31883.30997
649.5554 32018.25063
649.7530 32244.30542
649.9505 31782.97998
650.1480 32132.71161
650.3455 32219.13589
650.5430 31780.17427
650.7405 32046.24637
650.9380 32200.88849
651.1354 32471.01556
651.3329 32358.45920
651.5303 32885.03293
651.7277 32841.80031
651.9251 32858.55269
652.1225 32668.31687
652.3198 32681.56723
652.5172 32968.69245
652.7145 33304.94844
652.9118 33313.85710
653.1091 33440.87213
653.3064 33488.81507
653.5037 33380.92808
653.7009 33123.19121
653.8982 33555.39454
654.0954 33997.34619
654.2926 34079.59262
654.4898 34036.93343
654.6870 34071.27787
654.8841 34459.63418
655.0813 34144.65659
655.2784 34570.65457
655.4755 34526.50036
655.6726 34767.11621
655.8697 34322.29740
656.0668 34823.27151
656.2639 34707.99135
656.4609 34557.17893
656.6579 34902.13879
656.8550 35039.65989
657.0520 34949.95886
657.2490 34465.67569
657.4459 35216.80919
657.6429 35370.98027
657.8398 35212.22174
658.0367 35571.80409
658.2337 35391.02989
658.4305 35686.65418
658.6274 35771.99303
658.8243 35748.64619
659.0211 35839.45313
659.2180 35853.09260
659.4148 35980.10762
659.6116 36081.17488
659.8084 36290.86640
660.0052 36444.11590
660.2019 36345.19901
660.3987 36190.92552
660.5954 36498.83762
660.7921 36571.74531
660.9888 36309.68723
661.1855 36587.59659
661.3822 36683.23673
661.5788 36756.96360
661.7755 36639.94267
661.9721 36675.37253
662.1687 36982.17873
662.3653 36779.67558
662.5619 37018.81689
662.7584 36847.27903
662.9550 37037.41245
663.1515 37329.41183
663.3480 37151.93486
663.5445 37481.55543
663.7410 37132.09004
663.9375 37528.12624
664.1340 37457.18460
664.3304 37700.23753
664.5268 37496.54656
664.7233 37989.82031
664.9197 37875.72797
665.1160 38070.81748
665.3124 37759.62862
665.5088 38052.22192
665.7051 37983.63545
665.9014 37808.96419
666.0977 37804.43818
666.2940 37799.37970
666.4903 38078.31304
666.6866 38270.88354
666.8828 37954.04230
667.0791 38258.73909
667.2753 38654.77529
667.4715 38776.40415
667.6677 39135.14684
667.8639 39143.64591
668.0600 38534.43664
668.2562 38676.95479
668.4523 38688.21862
668.6484 39067.91202
668.8445 38573.79860
669.0406 39355.50827
669.2367 39246.76113
669.4327 39522.09005
669.6287 39368.10328
669.8248 39230.99177
670.0208 39231.21705
670.2168 39158.61656
670.4128 39445.92609
670.6087 39358.55975
670.8047 39414.44881
671.0006 39804.93502
671.1965 39113.84796
671.3924 39444.53347
671.5883 39229.18956
671.7842 39681.64730
671.9801 39011.47000
672.1759 39515.49559
672.3717 39304.57529
672.5675 40352.45946
672.7633 39767.10903
672.9591 40378.55058
673.1549 40479.69976
673.3506 40348.26113
673.5464 40039.79607
673.7421 40283.52483
673.9378 40422.21328
674.1335 40059.45657
674.3292 40425.51051
674.5249 40120.21980
674.7205 39499.37808
674.9161 39957.50869
675.1118 39739.56385
675.3074 39775.25995
675.5030 39859.30859
675.6985 40342.83401
675.8941 40271.38038
676.0896 40309.06300
676.2852 40292.59733
676.4807 40107.68624
676.6762 40263.14754
676.8717 40713.82355
677.0671 40808.74690
677.2626 41058.61957
677.4580 40783.72072
677.6534 40821.11663
677.8489 40466.26508
678.0442 40555.41316
678.2396 40230.54388
678.4350 40699.89736
678.6303 40360.61038
678.8257 40632.74446
679.0210 40895.78557
679.2163 40650.39795
679.4116 40797.11444
679.6069 40503.62003
679.8021 39973.81052
679.9974 40400.62769
680.1926 40477.63131
680.3878 40422.41807
680.5830 40547.61040
680.7782 40537.43200
680.9734 40378.24339
681.1685 40427.18984
681.3636 40302.16135
681.5588 40709.15418
681.7539 40568.70448
681.9490 40512.28294
682.1441 40435.99611
682.3391 40185.91864
682.5342 40829.82050
682.7292 40977.92960
682.9242 41174.53460
683.1192 40990.48365
683.3142 41174.30932
683.5092 41351.56102
683.7041 41590.76377
683.8991 41247.76996
684.0940 41050.20241
684.2889 40617.36422
684.4838 41049.42419
684.6787 40853.18782
684.8736 40359.83215
685.0684 40891.52580
685.2633 40832.11422
685.4581 41044.63194
685.6529 41492.56366
685.8477 41688.51331
686.0425 41504.72860
686.2372 41247.07365
686.4320 40981.45210
686.6267 40971.15082
686.8214 41171.85176
687.0161 40969.36909
687.2108 41317.72857
687.4055 41345.45807
687.6002 41310.23301
687.7948 41388.67021
687.9894 41491.39632
688.1841 41437.02275
688.3787 41535.50957
688.5732 41427.76593
688.7678 41389.73515
688.9624 41133.18611
689.1569 41387.21615
689.3514 40886.69259
689.5459 40617.75333
689.7404 41136.15566
689.9349 40906.43501
690.1294 41120.91877
690.3238 41118.39977
690.5182 41117.39627
690.7127 41181.64105
690.9071 41258.19412
691.1015 41090.85459
691.2958 41484.12603
691.4902 41264.97290
691.6845 42061.16171
691.8789 41463.40059
692.0732 41462.19229
692.2675 41168.65693
692.4618 41609.76892
692.6560 41463.54395
692.8503 42033.10454
693.0445 41783.49810
693.2387 41084.46493
693.4329 41674.40281
693.6271 41554.45328
693.8213 41653.02202
694.0155 41794.96673
694.2096 41595.55601
694.4038 41176.93072
694.5979 41245.14856
694.7920 41264.93194
694.9861 41168.16541
695.1801 41261.90094
695.3742 41039.28674
695.5682 41106.50108
695.7623 41339.02745
695.9563 41201.05579
696.1503 41427.41778
696.3443 40793.46905
696.5382 41482.87677
696.7322 41319.42839
696.9261 41582.65381
697.1201 40931.56358
697.3140 41147.33757
697.5079 41466.67734
697.7017 40906.25069
697.8956 40751.11706
698.0894 40940.77944
698.2833 41219.28271
698.4771 41383.30453
698.6709 41672.53916
698.8647 41354.12098
699.0585 41873.64969
699.2522 41083.58430
699.4460 41132.48980
699.6397 41357.45917
699.8334 40840.81809
700.0271 41320.92340
700.2208 41525.26972
700.4144 41763.14130
700.6081 41779.34073
700.8017 41306.32139
700.9954 41541.48964
701.1890 41163.92612
701.3826 41004.67607
701.5761 41045.45113
701.7697 41051.39024
701.9632 40705.52927
702.1568 41221.22828
702.3503 41115.47118
702.5438 41019.91296
702.7373 40200.60258
702.9308 41073.89741
703.1242 40992.96169
703.3177 40798.93713
703.5111 40956.75360
703.7045 41095.87212
703.8979 41428.70800
704.0913 41658.57201
704.2847 41681.95981
704.4780 41510.52435
704.6713 40902.35955
704.8647 41039.96257
705.0580 40936.76542
705.2513 40824.96681
705.4445 40959.72315
705.6378 40925.39920
705.8311 40280.51432
706.0243 40278.15915
706.2175 40740.48810
706.4107 40719.00491
706.6039 41112.95218
706.7971 41016.16517
706.9902 41013.50281
707.1834 41050.42769
707.3765 40622.25886
707.5696 40380.47567
707.7627 40641.24353
707.9558 40622.19742
708.1489 40343.28456
708.3419 40083.02869
708.5349 40213.44334
708.7280 40106.27314
708.9210 40809.62752
709.1140 40821.71054
709.3069 40405.95240
709.4999 40139.55263
709.6929 40662.23521
709.8858 40180.02049
710.0787 40407.77510
710.2716 39853.10324
710.4645 40354.73271
710.6574 40228.84407
710.8502 40511.44327
711.0431 39745.46200
711.2359 39810.17782
711.4287 39708.39377
711.6215 39920.27662
711.8143 39807.06490
712.0071 39735.79559
712.1998 39978.27509
712.3925 39788.98134
712.5853 40248.58649
712.7780 40129.27183
712.9707 39913.47736
713.1633 39847.12317
713.3560 40243.87616
713.5487 39984.25516
713.7413 40255.69294
713.9339 40271.11414
714.1265 39983.82509
714.3191 39939.65040
714.5117 39589.50918
714.7042 40082.14807
714.8968 40359.52495
715.0893 40948.74604
715.2818 40712.47189
715.4743 40628.83284
715.6668 40066.68590
715.8592 40117.06593
716.0517 40090.87241
716.2441 40297.14382
716.4366 39831.04662
716.6290 40067.21837
716.8214 40208.52822
717.0137 40342.17866
717.2061 40275.49680
717.3984 40173.11884
717.5908 39780.70755
717.7831 39667.31152
717.9754 40092.98182
718.1677 39201.95158
718.3600 39518.19891
718.5522 39445.53698
718.7445 39566.51049
718.9367 39317.92805
719.1289 39607.63371
719.3211 39324.11291
719.5133 39245.73715
719.7054 39281.59708
719.8976 39561.26769
720.0897 39450.49306
720.2818 39652.03367
720.4740 39677.79712
720.6660 39435.85009
720.8581 39411.72502
721.0502 39296.93637
721.2422 39301.03230
721.4343 39572.42912
721.6263 39755.66089
721.8183 39745.60536
722.0103 39783.14463
722.2022 39480.72108
722.3942 39813.39313
722.5861 39194.04642
722.7781 39688.61039
722.9700 39872.68182
723.1619 39647.89677
723.3538 39242.33752
723.5456 39086.50758
723.7375 39307.19669
723.9293 39337.81382
724.1211 39035.32884
724.3129 38746.46285
724.5047 38632.55483
724.6965 39047.61665
724.8883 38985.09217
725.0800 39214.05507
725.2718 38951.01397
725.4635 38982.26597
725.6552 38550.61560
725.8469 39129.57636
726.0385 39462.59656
726.2302 39083.16939
726.4218 38390.50540
726.6135 38509.94294
726.8051 38452.00590
726.9967 38506.62523
727.1882 38877.94244
727.3798 39295.95334
727.5714 38977.88332
727.7629 39042.16905
727.9544 38964.81728
728.1459 38591.88217
728.3374 38584.69380
728.5289 39140.88115
728.7204 38646.00998
728.9118 39127.89703
729.1032 39468.57663
729.2946 39490.94045
729.4860 38470.97009
729.6774 38674.31291
729.8688 38797.15007
730.0602 38542.91523
730.2515 38462.63486
730.4428 38667.30885
730.6341 38417.21091
730.8254 38203.48489
731.0167 38900.59298
731.2080 38492.37136
731.3992 38662.04558
731.5905 38835.28325
731.7817 38571.87351
731.9729 38136.80303
732.1641 38514.55087
732.3553 38201.43692
732.5464 38634.97143
732.7376 38704.68428
732.9287 38674.92730
733.1198 38681.80847
733.3109 38694.91547
733.5020 38575.25266
733.6931 38798.39933
733.8841 38436.23654
734.0752 38708.30919
734.2662 38436.25702
734.4572 38361.85432
734.6482 37919.82074
734.8392 38023.71420
735.0302 37882.91634
735.2211 38026.72471
735.4120 37868.47816
735.6030 38267.23816
735.7939 38060.55715
735.9848 38014.74409
736.1756 37880.64310
736.3665 37642.23906
736.5574 37435.88573
736.7482 37946.03474
736.9390 37765.67013
737.1298 38077.82153
737.3206 37964.44598
737.5114 38075.26157
737.7021 37857.66489
737.8929 37893.87298
738.0836 37763.35593
738.2743 38034.19980
738.4650 37861.33075
738.6557 37402.48335
738.8463 37489.37867
739.0370 37468.65322
739.2276 37249.00858
739.4182 36996.30971
739.6088 37490.54601
739.7994 36985.55788
739.9900 37236.65933
740.1806 37382.04463
740.3711 37533.86055
740.5617 37681.43718
740.7522 37436.62299
740.9427 37265.57664
741.1332 37267.52221
741.3236 37314.70741
741.5141 37429.53702
741.7045 37725.61186
741.8949 37633.96526
742.0854 37135.30535
742.2758 37758.76848
742.4661 37244.48257
742.6565 36942.98061
742.8469 37026.18958
743.0372 36991.25123
743.2275 36434.34709
743.4178 36688.64337
743.6081 36884.14246
743.7984 36671.72715
743.9886 36747.44055
744.1789 36731.46639
744.3691 36626.09840
744.5593 36689.38064
744.7495 36334.79533
744.9397 36325.59995
745.1299 36218.55262
745.3200 35922.27298
745.5102 36214.06757
745.7003 36307.78262
745.8904 36301.18816
746.0805 36570.51653
746.2706 36519.31731
746.4607 36778.24200
746.6507 36810.00600
746.8408 36432.46296
747.0308 36760.15844
747.2208 36195.06242
747.4108 36395.92719
747.6007 36119.18518
747.7907 36580.89973
747.9806 36481.71660
748.1706 36467.44226
748.3605 36540.47283
748.5504 36347.71801
748.7403 36581.39124
748.9302 36154.32832
749.1200 36182.56981
749.3098 36293.99979
749.4997 36014.16534
749.6895 35876.37800
749.8793 35948.44602
750.0691 36500.57840
750.2588 36394.32978
750.4486 36075.46104
750.6383 36016.82770
750.8280 35472.37521
751.0177 35345.31922
751.2074 35477.18793
751.3971 35430.78096
751.5868 35581.61386
751.7764 35184.65608
751.9660 34954.30055
752.1557 35230.18242
752.3453 35854.11658
752.5348 35728.76041
752.7244 35781.98712
752.9140 35739.45081
753.1035 35926.73755
753.2930 35659.41619
753.4825 35524.96704
753.6720 35265.42796
753.8615 35412.36972
754.0510 35239.99219
754.2404 35288.95912
754.4299 35500.76005
754.6193 35447.84054
754.8087 35227.39718
754.9981 35325.80208
755.1875 34974.14537
755.3768 34729.51550
755.5662 35051.23091
755.7555 35052.45969
755.9448 35487.87833
756.1341 35143.65574
756.3234 34691.50520
756.5127 34870.37479
756.7019 35013.79404
756.8912 35155.10389
757.0804 35042.05601
757.2696 34880.28696
757.4588 34582.40991
757.6480 34389.02022
757.8371 34272.79799
758.0263 34201.81539
758.2154 33853.35351
758.4045 33645.01365
758.5936 33584.70097
758.7827 34127.88372
758.9718 34377.30584
759.1609 34214.41040
759.3499 34021.63510
759.5389 33373.67827
759.7280 33491.23168
759.9170 33866.23523
760.1059 34040.88601
760.2949 33968.55175
760.4839 33843.52326
760.6728 33991.05893
760.8617 33924.43851
761.0506 33454.30680
761.2395 33427.92896
761.4284 33270.19441
761.6173 33262.61693
761.8061 33367.80060
761.9950 33343.06114
762.1838 33152.23141
762.3726 33375.41904
762.5614 32920.23751
762.7502 33555.16926
762.9389 33228.37489
763.1277 33007.89057
763.3164 33371.67126
763.5051 33300.56579
763.6938 33403.27142
763.8825 33293.23406
764.0712 33710.30289
764.2598 33344.49472
764.4484 33705.44921
764.6371 33688.34867
764.8257 33405.66754
765.0143 33660.31198
765.2029 33350.24951
765.3914 33672.06732
765.5800 33913.91195
765.7685 33428.60479
765.9570 33212.35977
766.1455 32963.83876
766.3340 32909.09656
766.5225 33015.11990
766.7110 32966.17345
766.8994 32746.87695
767.0878 32590.12543
767.2762 32750.64522
767.4646 32529.21884
767.6530 32636.32760
767.8414 32806.67764
768.0298 32556.94833
768.2181 32716.07550
768.4064 32704.87312
768.5947 32626.10824
768.7830 32285.18288
768.9713 32351.04555
769.1596 32067.34044
769.3478 32023.61631
769.5360 32130.64316
769.7243 31881.73304
769.9125 31600.05541
770.1007 31509.24848
770.2888 31491.45163
770.4770 31388.00873
770.6651 31370.47812
770.8533 31237.03247
771.0414 31159.39398
771.2295 31235.02546
771.4176 31482.76824
771.6056 31721.25420
771.7937 31341.00785
771.9817 31008.92971
772.1698 31437.38526
772.3578 31247.25184
772.5458 31172.23474
772.7337 30905.73257
772.9217 31060.45661
773.1096 30938.82774
773.2976 31225.25665
773.4855 31399.55927
773.6734 31070.24590
773.8613 31220.09577
774.0492 30878.49458
774.2370 30873.04699
774.4249 31367.48808
774.6127 31573.24750
774.8005 31361.38514
774.9883 31255.89427
775.1761 31279.07727
775.3639 30778.02124
775.5516 30984.70224
775.7394 30623.46104
775.9271 30544.59376
776.1148 30462.96172
776.3025 29760.46748
776.4902 30000.12079
776.6778 29906.11902
776.8655 30195.94756
777.0531 30611.66474
777.2407 30477.99382
777.4283 29957.44112
777.6159 30327.30428
777.8035 30196.58243
777.9911 29746.35698
778.1786 30145.75185
778.3661 29997.74514
778.5536 30065.36907
778.7411 30389.50109
778.9286 30577.75037
779.1161 30332.69043
779.3036 29819.65378
779.4910 29806.73110
779.6784 29831.81872
779.8658 30093.03713
780.0532 29834.01004
780.2406 29899.31977
780.4280 29331.29515
780.6153 29652.70337
780.8026 29825.42905
780.9900 29784.06008
781.1773 29402.85118
781.3646 29667.57162
781.5518 29390.46097
781.7391 29704.66034
781.9263 29216.11739
782.1136 29148.90306
782.3008 28888.58575
782.4880 28978.20486
782.6752 28924.19993
782.8623 28963.70524
783.0495 29148.28867
783.2366 28748.58660
783.4237 28827.45388
783.6108 29153.49051
783.7979 28917.56451
783.9850 28944.72057
784.1721 29246.32493
784.3591 28814.22400
784.5462 28798.24985
784.7332 28890.22412
784.9202 28918.26082
785.1072 28686.00068
785.2941 28787.29321
785.4811 28495.04807
785.6681 28585.65021
785.8550 28625.81088
786.0419 28536.58088
786.2288 28244.19238
786.4157 28002.22487
786.6025 28154.92142
786.7894 28195.77840
786.9762 28152.32050
787.1631 27801.52394
787.3499 28223.91749
787.5367 28195.63504
787.7234 27726.60924
787.9102 27794.78612
788.0970 27813.52503
788.2837 28019.71453
788.4704 27592.26249
788.6571 27436.22775
788.8438 27521.99668
789.0305 27410.95582
789.2171 27337.33134
789.4038 27134.19332
789.5904 27145.60050
789.7770 27210.99215
789.9636 27124.95698
790.1502 27467.43879
790.3368 27374.99348
790.5233 27272.82032
790.7099 27174.70214
790.8964 26782.22941
791.0829 26499.85548
791.2694 26474.23539
791.4559 26469.38170
791.6423 26439.93191
791.8288 26492.33943
792.0152 26710.28427
792.2016 26719.02909
792.3880 26832.65040
792.5744 26471.83927
792.7608 26145.80264
792.9471 26360.63456
793.1335 26729.94477
793.3198 26407.55353
793.5061 26463.87267
793.6924 25985.77436
793.8787 26060.52522
794.0650 26058.86637
794.2512 26145.27017
794.4375 26369.15411
794.6237 26485.72449
794.8099 26382.17919
794.9961 25925.31832
795.1823 25831.41896
795.3684 25925.85080
795.5546 25601.12487
795.7407 25783.84464
795.9268 25422.91063
796.1129 25567.25147
796.2990 26017.39500
796.4851 26386.62329
796.6712 26035.70384
796.8572 25670.55101
797.0432 25447.01522
797.2292 25808.99370
797.4152 25704.52681
797.6012 25188.66397
797.7872 25136.35884
797.9731 25274.94489
798.1591 25051.10190
798.3450 24966.58223
798.5309 25252.02812
798.7168 25329.25702
798.9027 25288.66628
799.0885 25237.22130
799.2744 25068.59156
799.4602 25414.57540
799.6460 25368.37322
799.8318 25648.84254
800.0176 25287.68325
800.2034 25300.29874
800.3892 24768.74845
800.5749 24674.64429
800.7606 24715.27599
800.9463 24799.54990
801.1320 24786.62722
801.3177 24875.07899
801.5034 24899.61366
801.6890 24950.25992
801.8747 24653.18158
802.0603 24204.45114
802.2459 24189.89009
802.4315 24213.31885
802.6171 24032.66753
802.8026 24314.48850
802.9882 24324.38019
803.1737 23936.45395
803.3592 24271.99315
803.5447 24407.87588
803.7302 24427.22918
803.9157 24365.07333
804.1012 24383.42313
804.2866 23863.52579
804.4720 24043.31696
804.6574 23827.44058
804.8428 23664.72946
805.0282 23590.38819
805.2136 23684.67668
805.3989 23955.72534
805.5843 23616.04924
805.7696 23539.80337
805.9549 23461.05897
806.1402 23415.49166
806.3255 23210.08040
806.5107 23361.56865
806.6960 23655.65696
806.8812 23294.27239
807.0664 23381.84354
807.2516 23008.17116
807.4368 22839.21374
807.6220 22901.47199
807.8072 22839.29565
807.9923 22918.53157
808.1774 22950.86899
808.3625 23205.28815
808.5476 23146.59337
808.7327 23150.13635
808.9178 22833.09031
809.1028 22863.52313
809.2879 22767.82155
809.4729 22706.91495
809.6579 22532.75569
809.8429 22753.62912
810.0279 22667.92163
810.2128 22679.92273
810.3978 22677.03509
810.5827 22729.72933
810.7676 22870.30190
810.9525 22971.77875
811.1374 22716.45849
811.3223 22578.38444
811.5072 22212.26906
811.6920 22213.84600
811.8768 22492.96366
812.0616 22151.97686
812.2464 22305.04205
812.4312 22230.45503
812.6160 22143.82595
812.8007 22288.67878
812.9855 22404.36853
813.1702 22095.35053
813.3549 22016.56517
813.5396 21859.34261
813.7243 21765.32036
813.9089 21970.93643
814.0936 22029.46737
814.2782 22003.84728
814.4628 22036.28711
814.6474 22061.21089
814.8320 21910.37799
815.0166 21671.91251
815.2012 21877.09850
815.3857 21678.26121
815.5702 21672.87505
815.7547 21725.54881
815.9392 21695.81230
816.1237 21475.57374
816.3082 21082.87574
816.4926 21268.60602
816.6771 21322.67240
816.8615 21063.39955
817.0459 21234.91694
817.2303 21187.73174
817.4147 21379.74929
817.5990 21391.21791
817.7834 21126.78419
817.9677 21082.71190
818.1520 21318.80174
818.3363 21092.91078
818.5206 20867.69566
818.7049 20987.74759
818.8891 21042.34643
819.0734 21017.52505
819.2576 20915.41333
819.4418 20661.95672
819.6260 20667.85487
819.8102 20708.42513
819.9944 20564.67820
820.1785 20404.60897
820.3627 20620.42391
820.5468 20584.44110
820.7309 20423.71651
820.9150 20257.52385
821.0991 20073.37050
821.2831 20325.96697
821.4672 20176.83388
821.6512 20024.54692
821.8352 20050.86332
822.0192 20403.70786
822.2032 20139.39701
822.3872 20343.37470
822.5711 20135.85403
822.7551 20110.84833
822.9390 20252.13769
823.1229 20282.55003
823.3068 20272.12587
823.4907 19890.77361
823.6745 19944.16415
823.8584 19855.42567
824.0422 19825.93492
824.2261 19807.13456
824.4099 19958.33610
824.5937 20156.00604
824.7774 19952.00787
824.9612 19946.33500
825.1449 19875.84391
825.3287 19826.16019
825.5124 19727.14090
825.6961 19912.58447
825.8798 19910.90514
826.0634 20013.26262
826.2471 19753.08867
826.4307 19825.40244
826.6144 19772.56485
826.7980 19889.13523
826.9816 19648.13027
827.1652 19786.94159
827.3487 19668.54852
827.5323 19374.03013
827.7158 19177.07698
827.8993 19481.44609
828.0828 19411.97899
828.2663 19138.10413
828.4498 19307.51211
828.6333 19614.85078
828.8167 19409.33711
829.0001 19438.70498
829.1836 19506.43131
829.3670 19511.48979
829.5504 19638.17714
829.7337 19248.48965
829.9171 19243.49260
830.1004 19284.77965
830.2837 19142.09767
830.4671 18966.58675
830.6504 18792.22269
830.8336 18920.69177
831.0169 18820.60754
831.2002 18992.20684
831.3834 18979.52991
831.5666 18949.48621
831.7498 18999.80480
831.9330 19209.96735
832.1162 19131.18200
832.2993 18961.07771
832.4825 18995.31975
832.6656 18893.65858
832.8487 18678.62186
833.0318 18625.92763
833.2149 18520.43676
833.3980 18683.84418
833.5811 18778.13266
833.7641 18716.14065
833.9471 18589.84242
834.1301 18412.01729
834.3131 18229.33848
834.4961 18397.41527
834.6791 18342.67307
834.8620 18775.90038
835.0450 18672.68275
835.2279 18771.76348
835.4108 18663.99937
835.5937 18808.40164
835.7766 18464.44529
835.9594 18539.64670
836.1423 18477.34749
836.3251 18782.90443
836.5079 18690.95063
836.6907 18420.00437
836.8735 18391.82432
837.0563 18413.40991
837.2390 18372.77821
837.4218 18140.62047
837.6045 18355.69815
837.7872 18546.17972
837.9699 18250.30968
838.1526 18091.75594
838.3352 18159.99426
838.5179 18286.80448
838.7005 18225.52926
838.8831 18247.38108
839.0658 18315.49652
839.2483 18504.31924
839.4309 18414.57725
839.6135 18431.20676
839.7960 18136.21734
839.9786 18193.60142
840.1611 17852.22551
840.3436 18108.16017
840.5261 17877.23121
840.7085 17738.76804
840.8910 17680.48285
841.0734 17827.19933
841.2559 17751.87504
841.4383 17890.31773
841.6207 18105.98932
841.8030 17794.92335
841.9854 17730.35089
842.1678 17604.01170
842.3501 17670.71404
842.5324 17574.27519
842.7147 17719.16898
842.8970 17957.14295
843.0793 17772.29329
843.2615 17762.15585
843.4438 17923.88394
843.6260 17886.34467
843.8082 17839.38475
843.9904 17830.88568
844.1726 17537.16600
844.3548 17352.39826
844.5369 17330.87411
844.7191 17401.18088
844.9012 17295.32137
845.0833 17286.16695
845.2654 17579.12888
845.4475 17735.83945
845.6296 17442.75464
845.8116 17326.45050
845.9936 17288.19444
846.1757 17131.64771
846.3577 17035.49558
846.5397 17057.22452
846.7216 17037.27731
846.9036 17015.67124
847.0855 16751.56519
847.2675 16979.60651
847.4494 17081.65679
847.6313 17225.95667
847.8132 17258.72417
847.9950 17123.76303
848.1769 17011.00187
848.3587 17156.69437
848.5406 16964.59490
848.7224 16966.92958
848.9042 16960.19176
849.0860 17077.21270
849.2677 16850.60496
849.4495 16659.61139
849.6312 16695.36893
849.8129 16935.24750
849.9946 17133.12225
850.1763 16978.33677
850.3580 16736.90173
850.5397 16626.53670
850.7213 16428.86675
850.9029 16464.23517
851.0845 16602.00203
851.2661 16607.94114
851.4477 16562.21000
851.6293 16528.80763
851.8109 16485.45213
851.9924 16489.83478
852.1739 16581.58378
852.3554 16481.33571
852.5369 16508.79897
852.7184 16266.31947
852.8999 16145.01828
853.0813 16177.58099
853.2628 16241.25233
853.4442 16350.20427
853.6256 16255.42428
853.8070 16300.52055
853.9883 16451.76304
854.1697 16313.44323
854.3510 16008.33685
854.5324 16083.25155
854.7137 16038.87206
854.8950 16039.77317
855.0763 16055.46061
855.2575 16125.50114
855.4388 16074.15856
855.6200 16106.47551
855.8013 16107.37662
855.9825 15904.32052
856.1637 15856.58236
856.3449 15907.82254
856.5260 15895.32993
856.7072 15745.76678
856.8883 15922.62936
857.0694 15831.65858
857.2505 15824.18350
857.4316 15731.88155
857.6127 15607.85656
857.7938 15713.22455
857.9748 15629.54455
858.1558 15546.64277
858.3368 15533.88393
858.5178 15484.83508
858.6988 15543.38650
858.8798 15478.95741
859.0607 15643.69601
859.2417 15638.08458
859.4226 15613.28368
859.6035 15606.93497
859.7844 15616.37611
859.9653 15504.24982
860.1462 15414.05728
860.3270 15449.03658
860.5078 15353.96987
860.6887 15432.40708
860.8695 15353.92891
861.0503 15284.78949
861.2310 15028.91627
861.4118 15008.64138
861.5925 15015.58400
861.7733 15039.42235
861.9540 14836.50961
862.1347 14749.10230
862.3154 14755.94252
862.4960 14949.74180
862.6767 14940.64882
862.8573 14939.66580
863.0380 14793.99378
863.2186 14785.41279
863.3992 14586.04303
863.5797 14649.91918
863.7603 14689.52689
863.9409 14749.57334
864.1214 14678.09923
864.3019 14607.19855
864.4824 14434.96438
864.6629 14381.45095
864.8434 14192.07528
865.0238 14246.28502
865.2043 14309.97684
865.3847 14128.40393
865.5651 14086.25674
865.7455 14225.27286
865.9259 14260.68224
866.1063 14113.26945
866.2866 14063.56524
866.4670 13997.47729
866.6473 13953.69172
866.8276 13948.26460
867.0079 13940.27753
867.1882 13762.47288
867.3684 13586.57284
867.5487 13663.43311
867.7289 13748.93580
867.9091 13757.47583
868.0893 13523.98692
868.2695 13295.72032
868.4497 13228.79270
868.6299 13264.98031
868.8100 13279.17273
868.9901 13318.92381
869.1703 13525.91201
869.3504 13513.23508
869.5304 13450.58772
869.7105 13583.33705
869.8906 13437.68551
870.0706 13273.19266
870.2506 13265.59470
870.4306 13305.73489
870.6106 13319.62012
870.7906 13461.95394
870.9706 13348.96751
871.1505 13261.23253
871.3305 13191.70399
871.5104 13136.98226
871.6903 13013.01871
871.8702 13083.44836
872.0500 13070.70999
872.2299 13048.83769
872.4097 12902.44888
872.5896 12909.37102
872.7694 12938.20642
872.9492 12958.09219
873.1290 12635.41424
873.3087 12669.22620
873.4885 13002.98367
873.6682 12940.47966
873.8480 12758.25140
874.0277 12702.81289
874.2074 12425.72272
874.3870 12458.94077
874.5667 12473.15367
874.7463 12655.62769
874.9260 12530.04624
875.1056 12480.66972
875.2852 12439.58746
875.4648 12464.69556
875.6444 12445.28082
875.8239 12575.51115
876.0035 12417.38748
876.1830 12287.13667
876.3625 12244.57988
876.5420 12258.91566
876.7215 12245.82914
876.9010 12165.03677
877.0804 12137.32776
877.2599 11980.74007
877.4393 12135.01355
877.6187 12227.06975
877.7981 12282.91785
877.9775 12179.61831
878.1568 12250.58043
878.3362 12138.12646
878.5155 12129.44308
878.6948 11918.85045
878.8741 11894.27482
879.0534 11873.91802
879.2327 11810.92250
879.4119 11844.12007
879.5912 11700.72130
879.7704 11857.75954
879.9496 12014.08100
880.1288 11979.57272
880.3080 11767.44412
880.4872 11836.23539
880.6663 11849.48575
880.8455 11780.67400
881.0246 11857.14515
881.2037 11814.19925
881.3828 11752.02292
881.5619 11722.59360
881.7409 11720.40228
881.9200 11637.74626
882.0990 11660.54015
882.2780 11577.20830
882.4570 11554.33249
882.6360 11567.43949
882.8150 11406.51011
882.9940 11432.70363
883.1729 11462.37870
883.3518 11682.26910
883.5308 11600.14555
883.7096 11521.33972
883.8885 11346.93470
884.0674 11223.54458
884.2463 11132.16421
884.4251 11234.84937
884.6039 11174.27045
884.7827 11262.10783
884.9615 11258.19621
885.1403 11161.92120
885.3191 11113.56866
885.4978 11006.37797
885.6765 10976.06804
885.8553 11087.49802
886.0340 11176.89185
886.2127 11069.29157
886.3913 10916.36975
886.5700 10816.87942
886.7486 10713.64132
886.9273 10695.43488
887.1059 10679.58360
887.2845 10552.22042
887.4630 10585.43848
887.6416 10680.11607
887.8202 10738.87230
887.9987 10740.18300
888.1772 10733.32230
888.3557 10716.54944
888.5342 10598.15636
888.7127 10714.97250
888.8912 10770.53389
889.0696 10801.76542
889.2481 10602.27278
889.4265 10449.45335
889.6049 10388.23957
889.7833 10338.24865
889.9616 10267.53229
890.1400 10266.16015
890.3183 10163.29068
890.4967 10295.34370
890.6750 10453.03730
890.8533 10292.18983
891.0316 10191.77792
891.2098 10037.48396
891.3881 10077.31695
891.5663 10024.70463
891.7445 10048.54299
891.9227 10020.07622
892.1009 9995.82827
892.2791 10097.67376
892.4573 10062.61253
892.6354 9968.26261
892.8136 10066.17600
892.9917 10021.38692
893.1698 9968.93844
893.3479 10015.89837
893.5259 10050.52952
893.7040 9886.67154
893.8820 9902.39994
894.0601 9818.57658
894.2381 9946.90230
894.4161 10009.36535
894.5941 10094.23317
894.7720 10054.80977
894.9500 10066.07360
895.1279 10112.03002
895.3058 9936.47814
895.4838 9893.24552
895.6616 9793.44800
895.8395 9678.51600
896.0174 9723.69419
896.1952 9793.12033
896.3731 9880.03612
896.5509 9856.30016
896.7287 9801.84467
896.9065 9749.99010
897.0842 9828.57067
897.2620 9755.17147
897.4397 9669.01342
897.6175 9681.81322
897.7952 9742.37166
897.9729 9822.01717
898.1506 9750.27682
898.3282 9667.78464
898.5059 9618.61291
898.6835 9650.09019
898.8611 9693.32281
899.0388 9541.48641
899.2163 9348.87495
899.3939 9347.25705
899.5715 9552.38160
899.7490 9571.75538
899.9266 9452.01065
900.1041 9509.57905
900.2816 9521.25248
900.4591 9468.10769
900.6365 9520.18753
900.8140 9372.16035
900.9914 9368.16681
901.1689 9339.22901
901.3463 9399.25498
901.5237 9429.85163
901.7011 9313.34269
901.8784 9270.17151
902.0558 9176.29262
902.2331 9226.18114
902.4104 9300.62480
902.5878 9306.62535
902.7650 9177.33708
902.9423 9138.26184
903.1196 9256.92115
903.2968 9309.86114
903.4741 9265.60454
903.6513 9199.04555
903.8285 9139.94117
904.0057 9219.62764
904.1828 9054.64328
904.3600 8958.90074
904.5371 8953.57602
904.7143 8979.97433
904.8914 9027.42577
905.0685 9114.73068
905.2456 9050.91597
905.4226 9018.70142
905.5997 9122.04193
905.7767 9214.03668
905.9537 9080.67296
906.1307 9047.08627
906.3077 9004.40660
906.4847 8976.65662
906.6617 8927.81257
906.8386 9039.97982
907.0156 8939.64983
907.1925 8858.71410
907.3694 8807.45345
907.5463 8795.30899
907.7231 8807.24865
907.9000 8877.73973
908.0768 8856.58422
908.2537 8741.73413
908.4305 8677.98086
908.6073 8742.53284
908.7841 8797.86895
908.9608 8718.22345
909.1376 8712.22290
909.3143 8737.37196
909.4910 8713.18545
909.6677 8738.41642
909.8444 8722.97474
910.0211 8677.22311
910.1978 8639.02850
910.3744 8738.31402
910.5510 8742.90147
910.7277 8757.01198
910.9043 8623.38202
911.0808 8617.87298
911.2574 8597.00418
911.4340 8580.29275
911.6105 8449.01796
911.7870 8470.72642
911.9636 8509.10536
912.1401 8429.31650
912.3165 8505.39854
912.4930 8438.30708
912.6695 8358.55918
912.8459 8346.37376
913.0223 8321.55238
913.1987 8275.45260
913.3751 8268.40759
913.5515 8275.57548
913.7279 8335.99056
913.9042 8279.69190
914.0805 8207.17333
914.2568 8190.62574
914.4331 8182.78202
914.6094 8172.93129
914.7857 8199.65728
914.9620 8227.34582
915.1382 8149.50253
915.3144 8102.05109
915.4906 8216.75782
915.6668 8229.84434
915.8430 8115.17857
916.0192 7950.31709
916.1953 8001.51630
916.3715 8028.54949
916.5476 7979.76688
916.7237 8085.76974
916.8998 8050.54468
917.0759 7908.76380
917.2519 7880.07176
917.4280 7992.13661
917.6040 7926.68353
917.7800 7961.17132
917.9560 7925.00419
918.1320 7943.39495
918.3080 7956.25620
918.4839 7904.07395
918.6599 7916.50512
918.8358 7883.47139
919.0117 7856.25388
919.1876 7820.49635
919.3635 7817.79303
919.5394 7929.46876
919.7152 7909.78778
919.8911 7831.12530
920.0669 7773.67978
920.2427 7619.22198
920.4185 7592.12735
920.5942 7638.06329
920.7700 7565.46280
920.9458 7665.58799
921.1215 7678.01916
921.2972 7645.53838
921.4729 7631.50979
921.6486 7527.61634
921.8243 7385.85594
921.9999 7416.49355
922.1756 7424.23487
922.3512 7473.30420
922.5268 7405.98747
922.7024 7512.29753
922.8780 7533.84216
923.0535 7526.55139
923.2291 7446.16862
923.4046 7514.79605
923.5801 7588.95300
923.7557 7563.82442
923.9311 7528.59936
924.1066 7456.34702
924.2821 7494.27540
924.4575 7485.57154
924.6330 7438.48874
924.8084 7363.96315
924.9838 7321.03773
925.1592 7329.22960
925.3345 7278.05086
925.5099 7222.55091
925.6852 7183.27087
925.8606 7253.31140
926.0359 7180.36275
926.2112 7185.07308
926.3864 7097.23570
926.5617 6988.14041
926.7370 6985.74428
926.9122 6951.19505
927.0874 6977.45001
927.2626 6958.73158
927.4378 6930.01905
927.6130 6967.23065
927.7882 6945.95225
927.9633 6831.69608
928.1384 6811.17543
928.3135 6766.36587
928.4886 6713.58972
928.6637 6759.50518
928.8388 6796.32765
929.0139 6758.03064
929.1889 6740.88914
929.3639 6717.86997
929.5389 6731.87808
929.7139 6716.49783
929.8889 6722.45742
930.0639 6748.34375
930.2388 6671.72924
930.4138 6605.17025
930.5887 6617.72430
930.7636 6636.87281
930.9385 6612.74774
931.1134 6576.04814
931.2882 6559.97158
931.4631 6483.91002
931.6379 6436.68386
931.8127 6363.16178
931.9875 6385.13649
932.1623 6398.22301
932.3371 6396.23648
932.5118 6344.62767
932.6866 6308.46054
932.8613 6322.87824
933.0360 6328.44871
933.2107 6287.61222
933.3854 6252.44859
933.5600 6264.75689
933.7347 6152.73300
933.9093 6168.01084
934.0839 6207.45472
934.2586 6244.58439
934.4331 6205.73443
934.6077 6149.00569
934.7823 6124.63486
934.9568 6207.12705
935.1314 6141.96068
935.3059 6103.62270
935.4804 6018.91872
935.6549 6052.95596
935.8293 6054.61481
936.0038 6006.91762
936.1782 6042.96187
936.3526 6045.74711
936.5271 5995.71523
936.7015 5939.27321
936.8758 5930.67174
937.0502 5892.72288
937.2246 5901.95922
937.3989 5999.34014
937.5732 5920.00183
937.7475 5900.42325
937.9218 5869.08932
938.0961 5815.24822
938.2703 5797.28754
938.4446 5774.84180
938.6188 5811.04989
938.7930 5801.05580
938.9672 5776.82833
939.1414 5829.87072
939.3156 5740.04681
939.4897 5725.26048
939.6639 5664.98876
939.8380 5650.24338
940.0121 5630.52144
940.1862 5644.42715
940.3603 5696.97803
940.5344 5705.68190
940.7084 5661.15906
940.8824 5636.19432
941.0565 5633.51148
941.2305 5561.32058
941.4045 5486.11917
941.5784 5461.70738
941.7524 5492.48835
941.9263 5553.06727
942.1003 5561.99641
942.2742 5535.02466
942.4481 5452.53248
942.6220 5488.69961
942.7958 5472.56161
942.9697 5503.24019
943.1435 5451.32418
943.3174 5453.33119
943.4912 5390.62238
943.6650 5371.57628
943.8387 5312.00086
944.0125 5305.91840
944.1863 5341.71689
944.3600 5348.72094
944.5337 5349.33533
944.7074 5412.61757
944.8811 5354.18902
945.0548 5334.01653
945.2284 5263.93504
945.4021 5273.60145
945.5757 5301.72006
945.7493 5254.22767
945.9229 5116.09217
946.0965 5032.84224
946.2701 5044.18799
946.4436 5087.74829
946.6172 5074.66177
946.7907 5060.24407
946.9642 5077.50844
947.1377 5085.88463
947.3112 5042.26290
947.4847 5068.53834
947.6581 5089.16138
947.8315 5084.36914
948.0050 5006.07529
948.1784 4951.55836
948.3518 4992.45630
948.5251 5010.58082
948.6985 5070.62727
948.8718 5020.65683
949.0452 4906.05250
949.2185 4908.24383
949.3918 4890.56985
949.5651 4924.68901
949.7383 4876.39791
949.9116 4873.91987
950.0848 4906.01154
950.2581 4926.08163
950.4313 4936.50579
950.6045 4969.51905
950.7776 4978.26388
950.9508 4866.67006
951.1239 4861.83685
951.2971 4750.69359
951.4702 4775.63785
951.6433 4765.80760
951.8164 4740.45375
951.9895 4741.15005
952.1625 4679.95675
952.3356 4721.12092
952.5086 4677.54015
952.6816 4704.24566
952.8546 4681.02169
953.0276 4622.16307
953.2006 4649.05290
953.3735 4650.46600
953.5465 4672.54310
953.7194 4671.84679
953.8923 4618.12857
954.0652 4639.95992
954.2381 4607.54057
954.4109 4581.16274
954.5838 4556.32088
954.7566 4554.86682
954.9294 4515.34102
955.1022 4506.73955
955.2750 4515.25910
955.4478 4494.28790
955.6206 4520.37902
955.7933 4529.92256
955.9660 4515.30006
956.1388 4541.37070
956.3115 4519.82607
956.4841 4442.92485
956.6568 4399.20071
956.8295 4418.57450
957.0021 4403.39905
957.1747 4421.23686
957.3473 4405.18078
957.5199 4364.46716
957.6925 4377.84040
957.8651 4380.89187
958.0376 4360.73986
958.2102 4340.66977
958.3827 4381.42434
958.5552 4409.11288
958.7277 4397.31658
958.9001 4364.63100
959.0726 4279.25118
959.2450 4232.08646
959.4175 4233.29476
959.5899 4201.55125
959.7623 4165.24076
959.9347 4148.85701
960.1070 4142.81550
960.2794 4164.60589
960.4517 4144.02381
960.6241 4166.30571
960.7964 4180.00662
960.9687 4194.05568
961.1409 4200.58870
961.3132 4165.67084
961.4855 4143.67565
961.6577 4116.78582
961.8299 4097.12532
962.0021 4064.39878
962.1743 4034.64180
962.3465 3994.50161
962.5186 4000.05160
962.6908 3994.82928
962.8629 3996.59054
963.0350 3944.34685
963.2071 3964.08927
963.3792 3970.88853
963.5513 4005.45824
963.7233 4039.02445
963.8954 4010.84440
964.0674 4017.99181
964.2394 3979.30568
964.4114 3949.44630
964.5834 3950.81843
964.7553 3930.83026
964.9273 3930.09299
965.0992 3912.91053
965.2711 3940.82435
965.4430 3918.68580
965.6149 3885.36535
965.7868 3867.83474
965.9587 3881.06462
966.1305 3907.19670
966.3023 3893.20907
966.4741 3892.92236
966.6459 3878.29986
966.8177 3879.63104
966.9895 3865.21334
967.1613 3880.81886
967.3330 3876.64101
967.5047 3823.35286
967.6764 3815.55010
967.8481 3820.54714
968.0198 3798.85915
968.1915 3781.75861
968.3631 3745.85772
968.5347 3741.65939
968.7064 3762.26195
968.8780 3758.73945
969.0496 3736.53946
969.2211 3732.27969
969.3927 3736.99002
969.5642 3681.40815
969.7358 3668.30115
969.9073 3651.15965
970.0788 3680.91663
970.2503 3697.85333
970.4217 3706.49576
970.5932 3696.78839
970.7646 3676.10391
970.9360 3682.04302
971.1074 3722.34704
971.2788 3731.41954
971.4502 3683.76331
971.6216 3622.07849
971.7929 3606.55489
971.9643 3605.59234
972.1356 3624.84325
972.3069 3612.12536
972.4782 3584.86690
972.6494 3586.44383
972.8207 3568.72890
972.9919 3558.40714
973.1632 3534.17967
973.3344 3534.28207
973.5056 3491.45904
973.6768 3487.69078
973.8479 3517.83688
974.0191 3528.19960
974.1902 3543.78465
974.3614 3531.78355
974.5325 3508.60054
974.7036 3490.02547
974.8746 3497.27527
975.0457 3499.58948
975.2167 3475.48489
975.3878 3449.45520
975.5588 3416.07331
975.7298 3418.48992
975.9008 3386.76688
976.0718 3378.57501
976.2427 3385.86577
976.4137 3368.72428
976.5846 3378.49309
976.7555 3384.04308
976.9264 3375.97409
977.0973 3379.10748
977.2682 3389.71596
977.4390 3402.49528
977.6098 3414.47590
977.7807 3396.02370
977.9515 3390.94474
978.1223 3399.27997
978.2930 3365.59088
978.4638 3340.03223
978.6346 3301.46898
978.8053 3273.69853
978.9760 3265.32233
979.1467 3238.30963
979.3174 3240.11184
979.4881 3235.38103
979.6587 3232.06332
979.8294 3244.43305
980.0000 3233.06683
980.1706 3232.32956
980.3412 3216.80595
980.5118 3249.75777
980.6824 3229.13473
980.8529 3250.67936
981.0235 3243.73674
981.1940 3219.85743
981.3645 3185.32867
981.5350 3199.95117
981.7055 3191.45210
981.8759 3200.31981
982.0464 3180.10635
982.2168 3156.90287
982.3872 3188.87166
982.5576 3175.12979
982.7280 3160.99881
982.8984 3164.09124
983.0687 3166.67168
983.2391 3176.11282
983.4094 3158.33645
983.5797 3130.83223
983.7500 3120.26471
983.9203 3099.82598
984.0906 3113.48593
984.2608 3078.87526
984.4311 3089.85237
984.6013 3070.31475
984.7715 3122.16932
984.9417 3122.43555
985.1119 3105.41693
985.2820 3046.06680
985.4522 3033.14412
985.6223 3065.50202
985.7924 3055.32362
985.9625 3080.49315
986.1326 3087.35385
986.3027 3074.30829
986.4727 3077.48264
986.6428 3061.71328
986.8128 3053.09133
986.9828 3031.60814
987.1528 3002.73178
987.3228 3002.89562
987.4928 3022.63804
987.6627 3020.13952
987.8327 3001.89211
988.0026 2995.37957
988.1725 3028.74098
988.3424 2998.49249
988.5123 3004.47255
988.6821 2985.87700
988.8520 2983.66519
989.0218 2939.69530
989.1916 2942.82870
989.3614 2914.15713
989.5312 2916.65565
989.7010 2915.67263
989.8707 2928.51339
990.0405 2910.61415
990.2102 2922.16469
990.3799 2918.41691
990.5496 2905.06415
990.7193 2890.95365
990.8890 2881.73779
991.0586 2871.14979
991.2283 2883.08945
991.3979 2884.72782
991.5675 2885.56749
991.7371 2884.52302
991.9067 2866.21418
992.0762 2840.02066
992.2458 2859.14869
992.4153 2875.86012
992.5848 2876.04443
992.7543 2857.83799
992.9238 2822.79725
993.0933 2836.23192
993.2627 2829.53506
993.4322 2818.63987
993.6016 2819.06994
993.7710 2805.04136
993.9404 2814.68729
994.1098 2792.91738
994.2792 2800.96590
994.4485 2791.58620
994.6179 2798.99985
994.7872 2801.78509
994.9565 2809.97696
995.1258 2810.81663
995.2951 2806.47494
995.4643 2812.96700
995.6336 2827.54853
995.8028 2812.72124
995.9720 2772.56057
996.1412 2769.34526
996.3104 2777.49618
996.4796 2802.27660
996.6487 2793.90041
996.8179 2786.83492
996.9870 2768.81279
997.1561 2745.52739
997.3252 2744.81060
997.4943 2729.86042
997.6634 2719.08811
997.8324 2726.07168
998.0014 2739.32204
998.1705 2710.17945
998.3395 2694.06193
998.5085 2667.11066
998.6774 2686.77116
998.8464 2674.52431
999.0153 2676.65420
999.1843 2671.65715
999.3532 2672.14867
999.5221 2648.51511
999.6910 2664.30495
999.8599 2687.81563
1000.0287 2692.68979
1000.1976 2704.01506
1000.3664 2696.56045
1000.5352 2687.28315
1000.7040 2697.89163
1000.8728 2679.21416
1001.0415 2646.71289
1001.2103 2620.41697
1001.3790 2638.17286
1001.5478 2606.10167
1001.7165 2608.84595
1001.8851 2617.42694
1002.0538 2615.23561
1002.2225 2627.40055
1002.3911 2615.21513
1002.5598 2602.45629
1002.7284 2586.05206
1002.8970 2571.73676
1003.0656 2586.09302
1003.2341 2550.49932
1003.4027 2553.57127
1003.5712 2518.87868
1003.7398 2529.73292
1003.9083 2539.56317
1004.0768 2523.60949
1004.2453 2513.86116
1004.4137 2542.71704
1004.5822 2543.51575
1004.7506 2546.01427
1004.9190 2521.35673
1005.0874 2516.23680
1005.2558 2515.31522
1005.4242 2513.71780
1005.5926 2527.56207
1005.7609 2517.99806
1005.9292 2496.35103
1006.0976 2512.89862
1006.2659 2522.70839
1006.4342 2541.22202
1006.6024 2512.75526
1006.7707 2507.90157
1006.9389 2493.58627
1007.1071 2499.11579
1007.2754 2506.89807
1007.4436 2489.77705
1007.6117 2480.66359
1007.7799 2480.54071
1007.9481 2476.32189
1008.1162 2477.73499
1008.2843 2453.87616
1008.4524 2471.50917
1008.6205 2460.20438
1008.7886 2471.59109
1008.9566 2469.09256
1009.1247 2454.94110
1009.2927 2442.38705
1009.4607 2444.39406
1009.6287 2419.24500
1009.7967 2430.73411
1009.9647 2407.40775
1010.1327 2390.12289
1010.3006 2377.60980
1010.4685 2380.55888
1010.6364 2377.65076
1010.8043 2391.10591
1010.9722 2374.16921
1011.1401 2356.86388
1011.3079 2348.44672
1011.4758 2362.96682
1011.6436 2356.24949
1011.8114 2373.39098
1011.9792 2357.84690
1012.1470 2386.72326
1012.3147 2377.91700
1012.4825 2385.41256
1012.6502 2383.67179
1012.8179 2381.80814
1012.9856 2360.24303
1013.1533 2360.26350
1013.3210 2336.22035
1013.4886 2335.38068
1013.6563 2323.93254
1013.8239 2331.05947
1013.9915 2330.11740
1014.1591 2321.31114
1014.3267 2338.51408
1014.4942 2344.20743
1014.6618 2329.46205
1014.8293 2342.56905
1014.9969 2320.04140
1015.1644 2346.13252
1015.3319 2340.86924
1015.4993 2325.98051
1015.6668 2301.87592
1015.8342 2289.09659
1016.0017 2290.16153
1016.1691 2303.14566
1016.3365 2297.69806
1016.5039 2294.25747
1016.6712 2294.70802
1016.8386 2290.05914
1017.0059 2279.75785
1017.1733 2297.00175
1017.3406 2298.16909
1017.5079 2283.46468
1017.6752 2268.65786
1017.8424 2259.21673
1018.0097 2266.77373
1018.1769 2269.06746
1018.3441 2253.58481
1018.5113 2256.88204
1018.6785 2240.17062
1018.8457 2249.14072
1019.0129 2238.49128
1019.1800 2251.35253
1019.3471 2254.67024
1019.5142 2253.62577
1019.6813 2235.91084
1019.8484 2234.39535
1020.0155 2233.63760
1020.1826 2229.33686
1020.3496 2215.45163
1020.5166 2203.34814
1020.6836 2198.08486
1020.8506 2194.95147
1021.0176 2188.97140
1021.1846 2214.34573
1021.3515 2194.45995
1021.5185 2212.11345
1021.6854 2190.97841
1021.8523 2211.72433
1022.0192 2207.87415
1022.1861 2201.62785
1022.3529 2171.72750
1022.5198 2201.70976
1022.6866 2193.45645
1022.8534 2212.25680
1023.0202 2193.78413
1023.1870 2184.22011
1023.3538 2170.15057
1023.5205 2178.69060
1023.6873 2159.41921
1023.8540 2170.78544
1024.0207 2148.54450
1024.1874 2163.08507
1024.3541 2163.49467
1024.5207 2168.61459
1024.6874 2138.28417
1024.8540 2156.81829
1025.0206 2132.91849
1025.1872 2141.72476
1025.3538 2135.88805
1025.5204 2139.39008
1025.6870 2136.72772
1025.8535 2124.86998
1026.0201 2130.56333
1026.1866 2129.51887
1026.3531 2113.68807
1026.5196 2119.85245
1026.6860 2133.30761
1026.8525 2128.63824
1027.0189 2099.33181
1027.1853 2110.20652
1027.3518 2104.39029
1027.5181 2117.12865
1027.6845 2117.92736
1027.8509 2091.54953
1028.0172 2084.60691
1028.1836 2077.72574
1028.3499 2074.16227
1028.5162 2077.82813
1028.6825 2069.96393
1028.8488 2077.00895
1029.0150 2067.40397
1029.1813 2074.44899
1029.3475 2052.14661
1029.5137 2066.66670
1029.6799 2052.55620
1029.8461 2057.34845
1030.0123 2048.29642
1030.1784 2058.20859
1030.3446 2063.30804
1030.5107 2059.33498
1030.6768 2057.45085
1030.8429 2044.32337
1031.0090 2036.93020
1031.1750 2049.54569
1031.3411 2038.15898
1031.5071 2050.32391
1031.6732 2037.50363
1031.8392 2045.53167
1032.0051 2030.82725
1032.1711 2029.70087
1032.3371 2019.05143
1032.5030 2019.33815
1032.6690 2020.17781
1032.8349 2026.11692
1033.0008 2004.06030
1033.1667 2012.78465
1033.3325 2002.07377
1033.4984 2013.37856
1033.6642 2009.85605
1033.8300 2016.18428
1033.9959 2009.11878
1034.1616 2009.89701
1034.3274 2006.02635
1034.4932 2000.82451
1034.6589 1991.81345
1034.8247 2002.93392
1034.9904 1977.98966
1035.1561 1992.26400
1035.3218 1991.64961
1035.4875 1979.23892
1035.6531 1974.85627
1035.8188 1974.36475
1035.9844 1974.46715
1036.1500 1971.35424
1036.3156 1952.55389
1036.4812 1967.01255
1036.6468 1971.78431
1036.8123 1965.45609
1036.9779 1949.09282
1037.1434 1964.53450
1037.3089 1962.46605
1037.4744 1962.26126
1037.6399 1954.23322
1037.8053 1948.08931
1037.9708 1948.51939
1038.1362 1964.37067
1038.3016 1952.73820
1038.4670 1948.53987
1038.6324 1944.68969
1038.7978 1923.86184
1038.9632 1945.38600
1039.1285 1948.90850
1039.2938 1917.00115
1039.4592 1933.73305
1039.6245 1925.60262
1039.7897 1927.67107
1039.9550 1917.79986
1040.1203 1927.24099
1040.2855 1916.01812
1040.4507 1923.67753
1040.6159 1920.13454
1040.7811 1914.07255
1040.9463 1916.83731
1041.1115 1912.67993
1041.2766 1910.03805
1041.4418 1902.54249
1041.6069 1886.15874
1041.7720 1899.22478
1041.9371 1890.68475
1042.1021 1890.21372
1042.2672 1889.10781
1042.4323 1898.87663
1042.5973 1882.96391
1042.7623 1876.02129
1042.9273 1893.53143
1043.0923 1882.26760
1043.2572 1870.83993
1043.4222 1861.21448
1043.5871 1854.23091
1043.7521 1870.32794
1043.9170 1883.63974
1044.0819 1869.73403
1044.2467 1863.09861
1044.4116 1860.45673
1044.5765 1848.02556
1044.7413 1868.17757
1044.9061 1851.26135
1045.0709 1861.31688
1045.2357 1844.11394
1045.4005 1836.12686
1045.5652 1839.17834
1045.7300 1837.17133
1045.8947 1823.20418
1046.0594 1831.68277
1046.2241 1823.65473
1046.3888 1833.85362
1046.5535 1825.88702
1046.7181 1832.44052
1046.8828 1824.98591
1047.0474 1810.11766
1047.2120 1807.96729
1047.3766 1815.54478
1047.5412 1808.47928
1047.7057 1802.92929
1047.8703 1808.68408
1048.0348 1816.34348
1048.1993 1807.90585
1048.3639 1809.87190
1048.5283 1801.12708
1048.6928 1791.93170
1048.8573 1790.14996
1049.0217 1786.29978
1049.1861 1779.43909
1049.3506 1788.61399
1049.5150 1781.07746
1049.6793 1786.42266
1049.8437 1773.93005
1050.0081 1778.80422
1050.1724 1770.57138
1050.3367 1765.32858
1050.5010 1766.55736
1050.6653 1768.48245
1050.8296 1756.56328
1050.9939 1766.53688
1051.1581 1754.96586
1051.3224 1754.00332
1051.4866 1745.58616
1051.6508 1766.41401
1051.8150 1739.95425
1051.9791 1736.55462
1052.1433 1746.24151
1052.3074 1738.13156
1052.4716 1724.63544
1052.6357 1735.67400
1052.7998 1730.69743
1052.9639 1737.72196
1053.1279 1714.98951
1053.2920 1728.38323
1053.4560 1720.90814
1053.6201 1735.20296
1053.7841 1713.67881
1053.9481 1724.38969
1054.1120 1724.43065
1054.2760 1708.23121
1054.4399 1716.36165
1054.6039 1711.79468
1054.7678 1699.87550
1054.9317 1699.91646
1055.0956 1708.53841
1055.2595 1701.96443
1055.4233 1689.96333
1055.5872 1694.57126
1055.7510 1674.25541
1055.9148 1690.88492
1056.0786 1683.53271
1056.2424 1693.50632
1056.4062 1677.63456
1056.5699 1694.10023
1056.7336 1676.09858
1056.8974 1666.75985
1057.0611 1658.85469
1057.2248 1660.04251
1057.3885 1659.94011
1057.5521 1662.27480
1057.7158 1647.65230
1057.8794 1660.65690
1058.0430 1662.76631
1058.2066 1656.84768
1058.3702 1642.69621
1058.5338 1659.36668
1058.6973 1645.56337
1058.8609 1645.95248
1059.0244 1636.81854
1059.1879 1656.11041
1059.3514 1629.93737
1059.5149 1639.66522
1059.6784 1639.74714
1059.8418 1636.08128
1060.0053 1627.04973
1060.1687 1629.42538
1060.3321 1613.10307
1060.4955 1626.80398
1060.6589 1612.40676
1060.8222 1625.96431
1060.9856 1615.19199
1061.1489 1618.59162
1061.3122 1605.64846
1061.4755 1623.60915
1061.6388 1605.11599
1061.8021 1624.34641
1061.9654 1603.25234
1062.1286 1602.53555
1062.2918 1595.67485
1062.4550 1606.57005
1062.6182 1596.22780
1062.7814 1594.58943
1062.9446 1599.83223
1063.1077 1592.99201
1063.2709 1580.60180
1063.4340 1574.76509
1063.5971 1573.94590
1063.7602 1588.85512
1063.9233 1577.85752
1064.0863 1578.43095
1064.2494 1568.45735
1064.4124 1573.04480
1064.5754 1572.77856
1064.7384 1580.94996
1064.9014 1567.41288
1065.0644 1563.78798
1065.2274 1557.21400
1065.3903 1558.50422
1065.5532 1549.51364
1065.7162 1556.80440
1065.8790 1551.54112
1066.0419 1554.38780
1066.2048 1548.57157
1066.3677 1554.14205
1066.5305 1540.46161
1066.6933 1549.92323
1066.8561 1541.60848
1067.0189 1540.40017
1067.1817 1522.74668
1067.3445 1529.97601
1067.5072 1521.74318
1067.6699 1528.72675
1067.8327 1519.96145
1067.9954 1529.46402
1068.1580 1509.66016
1068.3207 1515.12824
1068.4834 1509.12769
1068.6460 1522.74668
1068.8086 1512.93691
1068.9713 1503.04523
1069.1339 1502.79947
1069.2964 1499.37936
1069.4590 1499.15408
1069.6216 1507.03876
1069.7841 1494.97623
1069.9466 1494.46424
1070.1091 1487.03011
1070.2716 1492.94874
1070.4341 1493.37881
1070.5966 1489.44671
1070.7590 1481.99211
1070.9214 1491.06461
1071.0839 1487.54210
1071.2463 1484.16295
1071.4086 1475.09045
1071.5710 1474.06647
1071.7334 1471.69082
1071.8957 1479.45262
1072.0580 1460.61131
1072.2204 1468.43455
1072.3827 1453.11575
1072.5449 1455.04084
1072.7072 1453.97589
1072.8695 1457.94895
1073.0317 1446.56225
1073.1939 1450.49435
1073.3561 1441.27849
1073.5183 1463.78566
1073.6805 1442.97830
1073.8427 1446.70560
1074.0048 1439.45580
1074.1669 1449.01981
1074.3291 1436.81392
1074.4912 1436.46576
1074.6532 1424.52610
1074.8153 1425.71392
1074.9774 1426.67647
1075.1394 1433.02517
1075.3014 1429.42075
1075.4635 1426.90175
1075.6255 1406.81117
1075.7874 1421.72039
1075.9494 1408.65435
1076.1114 1419.67242
1076.2733 1406.74973
1076.4352 1420.49160
1076.5971 1396.48941
1076.7590 1412.11541
1076.9209 1397.98443
1077.0828 1397.14476
1077.2446 1388.48185
1077.4064 1393.08978
1077.5683 1386.14717
1077.7301 1388.21562
1077.8918 1384.63167
1078.0536 1392.63923
1078.2154 1382.23555
1078.3771 1385.14366
1078.5388 1374.51471
1078.7006 1386.45436
1078.8623 1368.26840
1079.0239 1377.38186
1079.1856 1371.50419
1079.3473 1371.74995
1079.5089 1361.85826
1079.6705 1371.19700
1079.8321 1363.76287
1079.9937 1376.39884
1080.1553 1347.89111
1080.3169 1365.25789
1080.4784 1350.98355
1080.6399 1361.89922
1080.8014 1354.42413
1080.9629 1352.04849
1081.1244 1349.34517
1081.2859 1351.37266
1081.4474 1335.02987
1081.6088 1342.34112
1081.7702 1336.29961
1081.9316 1349.57045
1082.0930 1340.98946
1082.2544 1335.72618
1082.4158 1329.29556
1082.5771 1336.64776
1082.7385 1327.08375
1082.8998 1331.44592
1083.0611 1323.60220
1083.2224 1325.81401
1083.3837 1317.80645
1083.5449 1320.73505
1083.7062 1311.76494
1083.8674 1315.77896
1084.0286 1308.20148
1084.1898 1317.99077
1084.3510 1308.46771
1084.5122 1313.30092
1084.6734 1305.27288
1084.8345 1315.57417
1084.9956 1298.20739
1085.1567 1306.74742
1085.3178 1297.92068
1085.4789 1307.48469
1085.6400 1289.58544
1085.8010 1299.08802
1085.9621 1289.40113
1086.1231 1291.38765
1086.2841 1268.94192
1086.4451 1294.13193
1086.6061 1278.30113
1086.7670 1285.94006
1086.9280 1280.86110
1087.0889 1283.56441
1087.2498 1280.53342
1087.4107 1277.78914
1087.5716 1270.41645
1087.7325 1275.70021
1087.8933 1252.76296
1088.0542 1289.76976
1088.2150 1264.41591
1088.3758 1278.21922
1088.5366 1272.64874
1088.6974 1273.09929
1088.8582 1258.88639
1089.0189 1272.56682
1089.1796 1253.62311
1089.3404 1266.32052
1089.5011 1257.39137
1089.6618 1276.23269
1089.8224 1261.93786
1089.9831 1272.85354
1090.1438 1254.38086
1090.3044 1266.19764
1090.4650 1253.68455
1090.6256 1262.85945
1090.7862 1256.59267
1090.9468 1265.99284
1091.1073 1254.38086
1091.2679 1259.84894
1091.4284 1266.70963
1091.5889 1268.02033
1091.7494 1252.10761
1091.9099 1266.32052
1092.0703 1249.01518
1092.2308 1263.33048
1092.3912 1255.20005
1092.5516 1264.76406
1092.7121 1252.96776
1092.8724 1258.37440
1093.0328 1248.76942
1093.1932 1257.24802
1093.3535 1250.69452
1093.5139 1261.24155
1093.6742 1257.94432
1093.8345 1258.00576
1093.9948 1249.40430
1094.1550 1258.47680
1094.3153 1258.55872
1094.4755 1255.46628
1094.6358 1261.09820
1094.7960 1259.52126
1094.9562 1252.90632
1095.1163 1254.66757
1095.2765 1240.49563
1095.4367 1257.26850
1095.5968 1252.64009
1095.7569 1255.81444
1095.9170 1244.53013
1096.0771 1261.77403
1096.2372 1251.24747
1096.3973 1260.15613
1096.5573 1239.34877
1096.7173 1252.90632
1096.8773 1250.69452
1097.0374 1258.62015
1097.1973 1243.11703
1097.3573 1256.20355
1097.5173 1246.25042
1097.6772 1258.98879
1097.8371 1245.77939
1097.9970 1249.17902
1098.1569 1243.89526
1098.3168 1250.75595
1098.4767 1247.19249
1098.6365 1258.04672
1098.7964 1251.47274
1098.9562 1256.16259
1099.1160 1244.24341
1099.2758 1260.99580
1099.4356 1253.11112
1099.5953 1260.44285
1099.7551 1254.27846
1099.9148 1263.82200
1100.0745 1238.55006
1100.2342 1250.46924
1100.3939 1248.64655
1100.5536 1256.26499
1100.7132 1247.49968
1100.8729 1257.49377
1101.0325 1253.58215
1101.1921 1259.62366
1101.3517 1246.74194
1101.5113 1256.65410
1101.6709 1243.81334
1101.8304 1253.72551
1101.9899 1246.55762
1102.1495 1249.83437
1102.3090 1244.34581
1102.4685 1250.81739
1102.6279 1249.89581
1102.7874 1253.78695
1102.9468 1250.73547
1103.1063 1253.64359
1103.2657 1243.60854
1103.4251 1257.02274
1103.5845 1244.44821
1103.7438 1254.89285
1103.9032 1239.84028
1104.0625 1260.77052
1104.2219 1243.21943
1104.3812 1253.78695
1104.5405 1240.55707
1104.6997 1251.10411
1104.8590 1247.17201
1105.0183 1251.51370
1105.1775 1241.64249
1105.3367 1261.28251
1105.4959 1247.39729
1105.6551 1269.47439
1105.8143 1244.48917
1105.9735 1259.84894
1106.1326 1242.74840
1106.2917 1247.99120
1106.4508 1251.84138
1106.6099 1257.47329
1106.7690 1238.67294
1106.9281 1253.15208
1107.0872 1242.03161
1107.2462 1250.85835
1107.4052 1248.72847
1107.5642 1247.43825
1107.7232 1249.99821
1107.8822 1256.87938
1108.0412 1241.62201
1108.2001 1258.10816
1108.3591 1236.64545
1108.5180 1253.39783
1108.6769 1244.38677
1108.8358 1253.41831
1108.9947 1245.12404
1109.1535 1256.79746
1109.3124 1237.25984
1109.4712 1255.58916
1109.6300 1253.27496
1109.7888 1248.93326
1109.9476 1240.88475
1110.1064 1265.23509
1110.2651 1247.62256
1110.4239 1257.96480
1110.5826 1241.25338
1110.7413 1260.25853
1110.9000 1246.16850
1111.0587 1256.30595
1111.2173 1242.78936
1111.3760 1254.64710
1111.5346 1255.69156
1111.6932 1257.92385
1111.8518 1249.09710
1112.0104 1258.21056
1112.1690 1246.10707
1112.3276 1256.61315
1112.4861 1241.64249
1112.6446 1262.34746
1112.8032 1247.78640
1112.9617 1253.97127
1113.1201 1253.80743
1113.2786 1258.45632
1113.4371 1246.47570
1113.5955 1257.20706
1113.7539 1247.90928
1113.9123 1259.23455
1114.0707 1249.03566
1114.2291 1252.45577
1114.3875 1245.12404
1114.5458 1249.46573
1114.7042 1242.93271
1114.8625 1249.38382
1115.0208 1251.53418
1115.1791 1255.22053
1115.3374 1240.84379
1115.4956 1251.34987
1115.6539 1245.00116
1115.8121 1248.76942
1115.9703 1247.64304
1116.1285 1245.77939
1116.2867 1242.99415
1116.4449 1245.98419
1116.6030 1247.90928
1116.7612 1260.52477
1116.9193 1239.81980
1117.0774 1255.99875
1117.2355 1243.19895
1117.3936 1252.90632
1117.5516 1244.05910
1117.7097 1243.52662
1117.8677 1252.27145
1118.0257 1251.20651
1118.1837 1247.78640
1118.3417 1262.42938
1118.4997 1248.78990
1118.6577 1250.79691
1118.8156 1251.08363
1118.9735 1247.60208
1119.1315 1244.05910
1119.2894 1253.07016
1119.4472 1240.04508
1119.6051 1255.15909
1119.7630 1238.42718
1119.9208 1253.21352
1120.0786 1242.66648
1120.2364 1246.90577
1120.3942 1246.68050
1120.5520 1248.93326
1120.7098 1252.45577
1120.8675 1259.21407
1121.0253 1253.35687
1121.1830 1256.73602
1121.3407 1251.49322
1121.4984 1254.60614
1121.6560 1258.06720
