# Averages = 100
# wavelength [µm]	intensity
446.8250 14.33578
447.0374 36746.70328
447.2498 1229.66188
447.4621 1232.52903
447.6745 1235.37571
447.8868 1246.29138
448.0992 1245.55411
448.3115 1236.44065
448.5238 1246.08659
448.7360 1236.85025
448.9483 1244.26389
449.1606 1240.63899
449.3728 1271.48140
449.5850 1239.96316
449.7972 1242.09305
450.0094 1237.97663
450.2216 1253.39783
450.4337 1250.77643
450.6459 1685.23253
450.8580 2019.95254
451.0701 2048.93130
451.2822 2066.54383
451.4943 2055.44384
451.7064 2043.11506
451.9184 2038.40474
452.1305 2097.40672
452.3425 2206.62489
452.5545 2133.47145
452.7665 2120.44636
452.9785 2247.29755
453.1905 2276.21487
453.4024 2204.49500
453.6143 2298.94732
453.8263 2280.61800
454.0382 2397.49558
454.2501 2270.52151
454.4619 2244.40991
454.6738 2377.42548
454.8856 2443.32912
455.0975 2286.12704
455.3093 2301.60968
455.5211 2368.16866
455.7329 2334.54102
455.9446 2379.63729
456.1564 2373.06331
456.3681 2445.02893
456.5798 2505.58737
456.7916 2446.76970
457.0033 2447.01546
457.2149 2393.82971
457.4266 2422.50128
457.6382 2481.54421
457.8499 2457.13243
458.0615 2568.21425
458.2731 2480.68407
458.4847 2571.73676
458.6963 2595.47272
458.9078 2609.15315
459.1194 2765.06501
459.3309 2775.91924
459.5424 2638.45958
459.7539 2532.84583
459.9654 2589.53361
460.1769 2649.33429
460.3883 2634.67084
460.5998 2502.37206
460.8112 2479.88536
461.0226 2547.63217
461.2340 2663.75199
461.4454 2607.22806
461.6567 2559.73566
461.8681 2544.96981
462.0794 2500.05785
462.2907 2615.76809
462.5020 2699.28425
462.7133 2780.52717
462.9246 2855.54427
463.1359 2701.25030
463.3471 2460.02006
463.5583 2532.37480
463.7696 2868.36455
463.9808 2724.72002
464.1919 2616.42344
464.4031 2621.09280
464.6143 2770.59452
464.8254 2606.92086
465.0365 2577.24579
465.2476 2699.16137
465.4587 2736.78256
465.6698 2570.99949
465.8809 2539.78845
466.0919 2571.96203
466.3030 2734.40692
466.5140 2707.20989
466.7250 2598.25795
466.9360 2644.17341
467.1469 2591.02862
467.3579 2494.48738
467.5688 2500.09881
467.7798 2590.63951
467.9907 2774.26039
468.2016 2597.50020
468.4125 2573.66185
468.6233 2486.97133
468.8342 2497.21118
469.0450 2759.12590
469.2559 2756.21778
469.4667 2732.19511
469.6775 2510.72777
469.8882 2542.00025
470.0990 2590.35279
470.3098 2758.30671
470.5205 2628.69077
470.7312 2757.26225
470.9419 2857.67415
471.1526 2705.26432
471.3633 2571.77772
471.5739 2612.06126
471.7846 2595.63655
471.9952 2437.75864
472.2058 2500.99992
472.4164 2482.95731
472.6270 2526.88624
472.8376 2573.14986
473.0481 2717.83885
473.2587 2753.84214
473.4692 2688.65529
473.6797 2631.94704
473.8902 2553.24360
474.1007 2471.69348
474.3111 2475.09311
474.5216 2423.95533
474.7320 2535.18052
474.9424 2661.13059
475.1528 2729.53275
475.3632 2560.28861
475.5736 2554.06279
475.7840 2497.27261
475.9943 2527.62351
476.2046 2568.74672
476.4149 2581.56701
476.6252 2673.43889
476.8355 2810.38656
477.0458 2824.10795
477.2561 2857.42840
477.4663 2744.03237
477.6765 2686.42301
477.8867 2644.70588
478.0969 2657.99720
478.3071 2667.19258
478.5173 2626.68376
478.7274 2709.29882
478.9375 2850.58818
479.1477 2854.95036
479.3578 2836.58008
479.5679 2928.57483
479.7779 2792.75355
479.9880 2729.08220
480.1980 2809.66977
480.4081 2885.56749
480.6181 2812.76220
480.8281 2704.03554
481.0381 2832.17694
481.2480 2884.97358
481.4580 2803.60778
481.6679 2802.76811
481.8778 2748.39454
482.0877 2819.11090
482.2976 2849.42084
482.5075 2887.63594
482.7174 2864.02286
482.9272 2878.66583
483.1371 2818.35315
483.3469 2838.73044
483.5567 2912.43684
483.7665 2939.14235
483.9762 2947.60046
484.1860 2899.86231
484.3957 2954.82979
484.6055 2894.33280
484.8152 2930.52040
485.0249 2973.71206
485.2346 2960.27739
485.4442 2975.06372
485.6539 3021.14302
485.8635 3034.96681
486.0732 2951.61448
486.2828 3007.74930
486.4924 3008.99857
486.7019 2985.16021
486.9115 3031.95630
487.1210 3058.43653
487.3306 3079.73541
487.5401 3118.56489
487.7496 3120.65382
487.9591 3196.44915
488.1686 3184.42757
488.3780 3132.22485
488.5875 3155.34641
488.7969 3185.94307
489.0063 3168.02334
489.2157 3225.77606
489.4251 3199.93069
489.6345 3225.20263
489.8438 3226.84100
490.0531 3205.56261
490.2625 3245.51848
490.4718 3222.02827
490.6811 3266.16200
490.8903 3319.08151
491.0996 3324.97966
491.3089 3319.10199
491.5181 3372.82021
491.7273 3372.51302
491.9365 3369.31819
492.1457 3418.79711
492.3549 3421.52091
492.5640 3417.93697
492.7732 3446.03510
492.9823 3457.09413
493.1914 3524.00127
493.4005 3517.42729
493.6096 3502.76383
493.8187 3492.68782
494.0277 3563.44515
494.2368 3560.25031
494.4458 3591.11320
494.6548 3627.54657
494.8638 3678.90962
495.0728 3622.09897
495.2817 3673.05243
495.4907 3653.47385
495.6996 3722.06033
495.9085 3705.20554
496.1174 3747.02506
496.3263 3746.77931
496.5352 3783.29459
496.7440 3809.16044
496.9529 3826.48625
497.1617 3854.37959
497.3705 3843.79159
497.5793 3916.88359
497.7881 3878.58658
497.9969 3949.67157
498.2056 3967.75514
498.4144 3988.82873
498.6231 4004.31138
498.8318 4026.40896
499.0405 4058.05008
499.2492 4029.87003
499.4578 4103.31019
499.6665 4092.49691
499.8751 4178.08153
500.0837 4203.14866
500.2923 4184.61455
500.5009 4201.71509
500.7095 4258.34142
500.9180 4264.71060
501.1266 4323.79450
501.3351 4330.30704
501.5436 4385.70460
501.7521 4370.44723
501.9606 4429.71545
502.1691 4428.15899
502.3775 4474.72980
502.5860 4506.80099
502.7944 4509.68863
503.0028 4584.29613
503.2112 4613.52064
503.4196 4596.60442
503.6279 4698.18367
503.8363 4642.88851
504.0446 4756.48934
504.2529 4757.61572
504.4612 4806.35738
504.6695 4809.71605
504.8778 4859.52265
505.0860 4869.20954
505.2943 4891.18425
505.5025 4967.16389
505.7107 4983.62955
505.9189 5054.24352
506.1271 5086.35567
506.3353 5106.54864
506.5434 5102.82134
506.7516 5158.60800
506.9597 5180.05024
507.1678 5225.84282
507.3759 5288.30587
507.5840 5274.05200
507.7920 5322.93702
508.0001 5325.47650
508.2081 5453.24927
508.4161 5413.60059
508.6241 5483.84592
508.8321 5495.76510
509.0401 5563.34807
509.2480 5604.96279
509.4560 5583.88920
509.6639 5655.60906
509.8718 5691.96051
510.0797 5738.61323
510.2876 5710.43318
510.4955 5880.86514
510.7033 5923.79057
510.9112 5973.10566
511.1190 5976.81248
511.3268 5973.82245
511.5346 6057.50245
511.7424 6081.70944
511.9501 6148.49370
512.1579 6193.58997
512.3656 6244.64583
512.5733 6237.88754
512.7810 6350.44390
512.9887 6405.49330
513.1964 6472.74859
513.4040 6484.34010
513.6117 6528.63766
513.8193 6549.99797
514.0269 6621.22633
514.2345 6698.51667
514.4421 6714.04027
514.6497 6762.10610
514.8572 6840.46138
515.0647 6848.73517
515.2723 6931.53455
515.4798 7000.05959
515.6873 7074.40085
515.8947 7019.08522
516.1022 7081.36395
516.3097 7141.90190
516.5171 7271.64072
516.7245 7285.83315
516.9319 7328.65617
517.1393 7380.51074
517.3467 7461.24167
517.5540 7506.91137
517.7614 7584.11979
517.9687 7522.70121
518.1760 7603.98509
518.3833 7696.90143
518.5906 7699.39995
518.7978 7859.51015
519.0051 7836.24523
519.2123 7983.45322
519.4196 7911.65144
519.6268 8037.39672
519.8340 8081.59188
520.0411 8183.41689
520.2483 8261.69025
520.4554 8292.83986
520.6626 8358.10862
520.8697 8407.85378
521.0768 8543.06068
521.2839 8568.53741
521.4909 8637.65636
521.6980 8832.58202
521.9050 8850.70655
522.1121 8920.60372
522.3191 8980.89592
522.5261 9041.04476
522.7331 9126.54746
522.9400 9285.30600
523.1470 9303.10284
523.3539 9336.66905
523.5608 9397.32989
523.7677 9450.76139
523.9746 9519.20451
524.1815 9618.49003
524.3884 9710.58719
524.5952 9670.13980
524.8020 9882.78040
525.0089 9807.94762
525.2157 9942.35581
525.4225 10007.52217
525.6292 10055.91568
525.8360 10122.20843
526.0427 10274.14723
526.2494 10326.20659
526.4562 10414.90412
526.6629 10385.55673
526.8695 10460.98342
527.0762 10651.19875
527.2829 10641.20467
527.4895 10889.74615
527.6961 10948.23614
527.9027 11034.29179
528.1093 11013.87354
528.3159 11109.92327
528.5224 11160.46714
528.7290 11413.75992
528.9355 11350.68248
529.1420 11588.26733
529.3485 11468.97315
529.5550 11696.31817
529.7615 11696.05193
529.9680 11881.98701
530.1744 11914.57020
530.3808 12055.85956
530.5872 12012.01255
530.7936 12134.93163
531.0000 12211.54614
531.2064 12295.86102
531.4127 12403.95281
531.6191 12481.40699
531.8254 12523.75898
532.0317 12674.05941
532.2380 12685.71235
532.4443 12887.96974
532.6505 12726.52837
532.8568 12986.10840
533.0630 13148.14369
533.2692 13114.12693
533.4754 13256.03069
533.6816 13437.56264
533.8878 13445.61115
534.0939 13662.55248
534.3001 13640.37298
534.5062 13741.44024
534.7123 13833.12780
534.9184 13803.75993
535.1245 13856.72040
535.3306 13966.30721
535.5366 14136.24765
535.7426 14273.62540
535.9487 14436.62323
536.1547 14307.45784
536.3607 14453.47801
536.5666 14478.42227
536.7726 14607.07567
536.9785 14720.79938
537.1845 14923.11821
537.3904 14824.28324
537.5963 15048.94541
537.8022 15103.13466
538.0080 15293.65719
538.2139 15314.21880
538.4197 15465.56369
538.6256 15467.87790
538.8314 15590.24403
539.0372 15634.48015
539.2430 15877.45117
539.4487 15604.68221
539.6545 16014.23500
539.8602 15951.79243
540.0659 16072.45875
540.2716 16364.56053
540.4773 16360.46460
540.6830 16621.92877
540.8887 16620.59759
541.0943 16565.17955
541.2999 16594.89558
541.5056 16650.66177
541.7112 16803.89079
541.9167 16765.28658
542.1223 17016.75666
542.3279 17026.52547
542.5334 17101.46065
542.7389 17369.53976
542.9444 17485.20903
543.1499 17534.52412
543.3554 17474.86679
543.5609 17741.32800
543.7663 17862.87495
543.9718 17693.61033
544.1772 17960.21490
544.3826 17964.92523
544.5880 18288.21758
544.7934 18273.12405
544.9987 18335.40278
545.2041 18655.95085
545.4094 18501.59544
545.6147 18657.36395
545.8200 18851.90050
546.0253 18875.88221
546.2306 19069.76341
546.4358 18960.01277
546.6411 19203.82345
546.8463 19163.25319
547.0515 19483.06399
547.2567 19431.76237
547.4619 19597.75024
547.6670 19747.53867
547.8722 19761.19862
548.0773 20132.80255
548.2824 20004.45635
548.4876 19996.73551
548.6926 20248.65615
548.8977 20426.78847
549.1028 20630.52040
549.3078 20624.02834
549.5129 20672.31944
549.7179 20738.59171
549.9229 20874.06484
550.1279 20816.57836
550.3328 20866.91743
550.5378 20757.84262
550.7427 21026.98667
550.9476 21075.85120
551.1526 20817.45899
551.3575 21195.00203
551.5623 21183.69724
551.7672 21137.88418
551.9720 21342.88585
552.1769 21285.82944
552.3817 21579.13952
552.5865 21347.16610
552.7913 21510.86025
552.9961 21429.02341
553.2008 21594.56073
553.4056 21828.50020
553.6103 21759.83181
553.8150 22047.28470
554.0197 22070.24243
554.2244 21980.23420
554.4291 21888.34185
554.6337 22163.34309
554.8384 22186.79233
555.0430 22152.73461
555.2476 22072.47472
555.4522 21969.05229
555.6568 22159.37003
555.8613 22242.27180
556.0659 22417.22977
556.2704 22215.01334
556.4750 22470.49744
556.6795 22484.85370
556.8839 22311.34979
557.0884 22512.99279
557.2929 22561.30438
557.4973 22454.74856
557.7018 22489.40019
557.9062 22480.24577
558.1106 22523.43743
558.3150 22475.43305
558.5193 22661.57293
558.7237 22653.34009
558.9280 22509.59317
559.1323 22469.84209
559.3367 22438.54913
559.5410 22512.31696
559.7452 22176.47057
559.9495 22610.61946
560.1537 22531.13780
560.3580 22481.92511
560.5622 22712.97694
560.7664 22799.85178
560.9706 22689.77346
561.1748 22831.75913
561.3789 22847.18033
561.5831 22800.85528
561.7872 22812.30343
561.9913 22876.40485
562.1954 22770.93446
562.3995 22880.05023
562.6036 22879.90687
562.8076 22622.25193
563.0117 22962.44002
563.2157 22910.15537
563.4197 23008.29404
563.6237 22958.05736
563.8277 22725.71531
564.0316 22578.34348
564.2356 22774.47744
564.4395 22852.54601
564.6434 22830.16171
564.8473 22993.24147
565.0512 22955.33356
565.2551 22925.69946
565.4590 23032.70582
565.6628 23088.39009
565.8666 23089.31168
566.0705 23022.95749
566.2743 22926.49816
566.4780 22909.84818
566.6818 22931.47473
566.8856 23121.77198
567.0893 22870.32238
567.2930 22886.21462
567.4967 22786.13039
567.7004 22906.57143
567.9041 23013.80307
568.1078 22878.53474
568.3114 22930.06163
568.5151 22951.25811
568.7187 22466.99542
568.9223 22813.67557
569.1259 22818.44733
569.3295 23049.86780
569.5330 22990.43575
569.7366 22882.83547
569.9401 22958.99943
570.1436 22960.33061
570.3471 23214.01250
570.5506 23092.32219
570.7541 22947.67416
570.9575 23028.73276
571.1609 22861.78235
571.3644 23027.93406
571.5678 23019.25067
571.7712 23151.09890
571.9746 23138.09430
572.1779 22871.28493
572.3813 22691.32991
572.5846 23027.91358
572.7879 22912.42862
572.9912 23173.93375
573.1945 23081.44748
573.3978 22923.52861
573.6010 22951.21715
573.8043 23155.68635
574.0075 22687.95076
574.2107 22850.80524
574.4139 22636.44435
574.6171 22697.67862
574.8203 22406.94897
575.0234 22571.27798
575.2266 22270.28802
575.4297 22326.38188
575.6328 22329.06472
575.8359 22318.53816
576.0390 21814.26682
576.2420 21879.08503
576.4451 21598.80002
576.6481 21777.56722
576.8512 22035.16073
577.0542 21480.61175
577.2571 21697.00013
577.4601 21603.61275
577.6631 21354.84599
577.8660 21285.72704
578.0689 20940.52143
578.2719 21037.28795
578.4748 21028.62504
578.6776 20777.66695
578.8805 20719.56608
579.0834 20493.10170
579.2862 20662.24343
579.4890 20723.27290
579.6918 20724.97272
579.8946 20310.62768
580.0974 20378.02633
580.3002 20194.79457
580.5029 19956.12429
580.7057 20166.73740
580.9084 19780.10138
581.1111 19993.02869
581.3138 19754.80896
581.5164 19595.90707
581.7191 19459.65570
581.9217 19383.57367
582.1244 19159.07533
582.3270 19056.94313
582.5296 19149.90043
582.7322 19191.22844
582.9347 19053.19535
583.1373 18782.59724
583.3398 18779.58672
583.5424 18642.12706
583.7449 18530.90188
583.9474 18422.54385
584.1498 18250.71927
584.3523 18406.50825
584.5548 18135.23431
584.7572 18067.67182
584.9596 18097.77697
585.1620 18190.83667
585.3644 17783.88480
585.5668 17675.89540
585.7691 17759.80068
585.9715 17586.78828
586.1738 17645.99506
586.3761 17449.28766
586.5784 17552.95584
586.7807 17475.31734
586.9830 17410.86777
587.1852 17221.02106
587.3875 17091.56896
587.5897 17174.98273
587.7919 17003.36295
587.9941 16834.85608
588.1963 16765.94193
588.3984 16637.10421
588.6006 16437.61158
588.8027 16630.50975
589.0048 16464.23517
589.2069 16366.97714
589.4090 16471.56690
589.6111 16450.24755
589.8131 16381.88635
590.0152 16410.80367
590.2172 16110.03898
590.4192 16282.86706
590.6212 16044.17630
590.8232 15833.01024
591.0252 15983.53595
591.2271 15878.45467
591.4291 15840.19861
591.6310 15701.61257
591.8329 15609.47445
592.0348 15604.19070
592.2367 15515.67749
592.4385 15599.11173
592.6404 15655.81999
592.8422 15612.44401
593.0440 15617.23626
593.2458 15654.46833
593.4476 15569.55954
593.6494 15514.28487
593.8512 15535.37895
594.0529 15450.67496
594.2546 15429.56040
594.4563 15298.24464
594.6580 15177.80360
594.8597 15140.14146
595.0614 15017.69340
595.2630 15151.95824
595.4647 15029.69450
595.6663 14907.41029
595.8679 14901.73741
596.0695 14964.89677
596.2711 14796.45134
596.4727 14786.12958
596.6742 14785.65855
596.8757 14790.24600
597.0773 14725.87834
597.2788 14538.50968
597.4802 14625.24115
597.6817 14642.85368
597.8832 14461.85421
598.0846 14438.42544
598.2860 14327.52794
598.4875 14163.71092
598.6889 14237.27395
598.8902 14188.02030
599.0916 14163.87475
599.2930 14040.05456
599.4943 14075.70970
599.6956 14013.26713
599.8969 13839.02595
600.0982 13735.50113
600.2995 13604.06250
600.5008 13760.30203
600.7020 13587.86306
600.9032 13601.40014
601.1045 13498.79690
601.3057 13376.84036
601.5068 13442.60064
601.7080 13404.71322
601.9092 13206.89992
602.1103 13315.68802
602.3115 13247.04010
602.5126 13162.17228
602.7137 13018.09768
602.9147 12974.49642
603.1158 12972.73517
603.3169 12910.21068
603.5179 12867.08046
603.7189 12702.11658
603.9199 12698.61455
604.1209 12568.71189
604.3219 12500.96509
604.5229 12530.68111
604.7238 12461.48025
604.9247 12373.78623
605.1257 12341.22353
605.3266 12292.37947
605.5275 12137.28680
605.7283 12124.67131
605.9292 12127.16983
606.1300 11854.38039
606.3309 11811.18873
606.5317 11863.59625
606.7325 11913.62813
606.9332 11846.51619
607.1340 11732.42385
607.3348 11609.42285
607.5355 11504.17774
607.7362 11557.30205
607.9369 11312.03731
608.1376 11377.69519
608.3383 11228.48018
608.5390 11249.28755
608.7396 11167.63503
608.9402 11202.73722
609.1409 11162.51511
609.3415 10958.92654
609.5421 10900.00648
609.7426 10870.43381
609.9432 10788.78129
610.1437 10571.92188
610.3443 10728.85773
610.5448 10603.56300
610.7453 10553.69496
610.9457 10466.88157
611.1462 10451.78804
611.3467 10342.40603
611.5471 10405.72922
611.7475 10243.73489
611.9479 10349.69679
612.1483 10091.22266
612.3487 10225.99948
612.5491 9983.86814
612.7494 10094.72468
612.9497 9902.91193
613.1501 9928.92113
613.3504 9825.90831
613.5506 9962.24159
613.7509 9851.26216
613.9512 9691.27484
614.1514 9607.90203
614.3516 9718.75858
614.5519 9618.57195
614.7521 9661.41546
614.9522 9545.52090
615.1524 9460.91932
615.3526 9448.34479
615.5527 9511.54510
615.7528 9384.59152
615.9529 9366.18028
616.1530 9377.87418
616.3531 9396.89981
616.5532 9371.15685
616.7532 9201.15496
616.9532 9194.54002
617.1533 9104.14268
617.3533 9138.07752
617.5532 9070.69935
617.7532 9075.34824
617.9532 8979.29850
618.1531 9082.02462
618.3530 8900.10355
618.5530 8921.03379
618.7528 8937.23323
618.9527 8934.36607
619.1526 8832.62298
619.3524 8825.76229
619.5523 8798.56526
619.7521 8774.25587
619.9519 8801.61674
620.1517 8741.22214
620.3515 8807.10529
620.5512 8811.01691
620.7510 8775.99665
620.9507 8685.39451
621.1504 8667.14711
621.3501 8641.62942
621.5498 8697.68232
621.7495 8650.70192
621.9492 8647.22037
622.1488 8547.17710
622.3484 8545.82544
622.5480 8524.17841
622.7476 8705.62844
622.9472 8584.22485
623.1468 8559.11676
623.3463 8756.47950
623.5459 8727.95130
623.7454 8666.36888
623.9449 8697.82568
624.1444 8715.80685
624.3439 8763.66787
624.5433 8693.38159
624.7428 8735.54926
624.9422 8708.14744
625.1416 8761.25127
625.3410 8713.39024
625.5404 8767.62045
625.7398 8778.29037
625.9391 8842.92427
626.1385 8768.11197
626.3378 8823.16137
626.5371 8913.49727
626.7364 8802.43592
626.9357 8878.14933
627.1350 8923.77807
627.3342 8926.03084
627.5335 8953.49410
627.7327 8994.18724
627.9319 9057.98146
628.1311 9229.10973
628.3303 9110.49138
628.5294 9172.46292
628.7286 9246.86562
628.9277 9351.25059
629.1268 9352.64321
629.3259 9452.64552
629.5250 9483.48793
629.7241 9492.33516
629.9231 9372.24227
630.1222 9606.14078
630.3212 9615.84815
630.5202 9547.24120
630.7192 9707.24900
630.9182 9707.12612
631.1171 9757.01464
631.3161 9820.84982
631.5150 9783.39247
631.7140 9898.01729
631.9129 9996.40170
632.1118 10105.31268
632.3106 10131.77244
632.5095 10210.49636
632.7083 10140.00527
632.9072 10271.79206
633.1060 10340.78813
633.3048 10309.20845
633.5036 10367.45268
633.7023 10477.89964
633.9011 10662.09395
634.0998 10763.48888
634.2986 10738.03263
634.4973 10928.12509
634.6960 10908.99706
634.8947 10942.50183
635.0933 11006.45989
635.2920 11098.45465
635.4906 11090.16037
635.6892 11311.27956
635.8878 11336.61293
636.0864 11473.58108
636.2850 11454.22778
636.4836 11526.48012
636.6821 11569.03691
636.8806 11730.66260
637.0792 11837.54609
637.2777 11872.30012
637.4761 11955.87773
637.6746 12075.68390
637.8731 12253.57046
638.0715 12219.26699
638.2699 12404.87439
638.4683 12399.59063
638.6667 12411.57125
638.8651 12539.61026
639.0635 12696.07507
639.2618 12758.96819
639.4602 12891.43081
639.6585 12901.60921
639.8568 13119.39021
640.0551 13177.90068
640.2534 13209.97187
640.4516 13425.31578
640.6499 13477.10891
640.8481 13721.51350
641.0463 13849.14292
641.2445 14011.85403
641.4427 13957.74670
641.6409 14052.01470
641.8390 14151.73030
642.0372 14257.71268
642.2353 14269.57042
642.4334 14349.21592
642.6315 14535.78588
642.8296 14580.67735
643.0277 14608.42733
643.2257 14980.91189
643.4237 15003.48050
643.6218 15006.59341
643.8198 15145.01562
644.0178 15369.37060
644.2157 15323.06603
644.4137 15419.68919
644.6116 16003.72892
644.8096 16062.75138
645.0075 15834.44382
645.2054 16148.27455
645.4033 16165.76421
645.6011 16258.39383
645.7990 16266.83146
645.9968 16524.95745
646.1947 16657.89110
646.3925 16809.62510
646.5903 16670.09699
646.7881 17017.51441
646.9858 16980.05706
647.1836 17005.12420
647.3813 17076.70071
647.5790 17206.48049
647.7767 17704.46457
647.9744 17517.79222
648.1721 17663.30040
648.3698 17979.93684
648.5674 17842.06759
648.7650 18107.07474
648.9627 18114.87750
649.1603 18725.74562
649.3578 18768.71201
649.5554 18878.25786
649.7530 19006.80885
649.9505 18810.01954
650.1480 19161.47145
650.3455 19220.86255
650.5430 19027.57526
650.7405 19243.47212
650.9380 19410.38158
651.1354 19671.86623
651.3329 19668.26180
651.5303 20028.17183
651.7277 20114.71899
651.9251 20187.44236
652.1225 20139.84757
652.3198 20254.20614
652.5172 20526.23783
652.7145 20778.95717
652.9118 20818.33961
653.1091 21010.25476
653.3064 21087.38127
653.5037 21127.37810
653.7009 21045.60270
653.8982 21402.11310
654.0954 21803.49450
654.2926 21893.37985
654.4898 21978.59583
654.6870 22078.86438
654.8841 22368.03757
655.0813 22228.26370
655.2784 22648.50689
655.4755 22725.83819
655.6726 22977.53355
655.8697 22666.93860
656.0668 23062.23753
656.2639 23070.20413
656.4609 23036.92464
656.6579 23334.57642
656.8550 23521.88364
657.0520 23564.93194
657.2490 23399.86566
657.4459 23929.67518
657.6429 24064.08337
657.8398 23999.94098
658.0367 24358.88847
658.2337 24287.27100
658.4305 24635.38473
658.6274 24771.86137
658.8243 24824.30985
659.0211 24939.15993
659.2180 25011.67851
659.4148 25176.29423
659.6116 25318.07511
659.8084 25527.39800
660.0052 25706.65670
660.2019 25724.12587
660.3987 25658.46800
660.5954 25967.75224
660.7921 26039.20587
660.9888 25971.13139
661.1855 26281.05050
661.3822 26378.96388
661.5788 26540.89677
661.7755 26552.61115
661.9721 26595.61850
662.1687 26847.39578
662.3653 26807.54230
662.5619 27056.88250
662.7584 26980.63662
662.9550 27233.78604
663.1515 27586.93777
663.3480 27509.74983
663.5445 27757.26733
663.7410 27568.07598
663.9375 27901.23953
664.1340 27999.82875
664.3304 28177.63340
664.5268 28096.65671
664.7233 28565.29340
664.9197 28530.04786
665.1160 28795.87420
665.3124 28596.21773
665.5088 28914.39015
665.7051 28957.43846
665.9014 28861.12249
666.0977 28914.92263
666.2940 29026.70076
666.4903 29247.26700
666.6866 29541.62154
666.8828 29275.34465
667.0791 29612.99325
667.2753 29997.90898
667.4715 30146.93967
667.6677 30494.91004
667.8639 30570.56200
668.0600 30129.22474
668.2562 30334.82032
668.4523 30427.20419
668.6484 30714.92332
668.8445 30353.21108
669.0406 31031.62121
669.2367 30991.56294
669.4327 31294.25272
669.6287 31219.15371
669.8248 31210.57272
670.0208 31342.44143
670.2168 31275.30901
670.4128 31554.38571
670.6087 31629.64856
670.8047 31816.42331
671.0006 32111.61753
671.1965 31558.11301
671.3924 31913.74279
671.5883 31821.72755
671.7842 32156.91860
671.9801 31674.90867
672.1759 32146.65827
672.3717 32014.70765
672.5675 32924.21057
672.7633 32581.66732
672.9591 33189.13581
673.1549 33323.93311
673.3506 33260.79423
673.5464 33049.66913
673.7421 33271.50511
673.9378 33401.59208
674.1335 33123.02738
674.3292 33502.02447
674.5249 33372.96148
674.7205 32868.79253
674.9161 33317.54345
675.1118 33145.53455
675.3074 33297.20712
675.5030 33395.32530
675.6985 33791.60725
675.8941 33870.35165
676.0896 33912.78556
676.2852 33927.16230
676.4807 33816.42863
676.6762 34043.85556
676.8717 34357.54294
677.0671 34509.23598
677.2626 34782.84461
677.4580 34643.31650
677.6534 34717.51440
677.8489 34540.54943
678.0442 34560.00513
678.2396 34352.54589
678.4350 34815.93978
678.6303 34614.27630
678.8257 34892.36998
679.0210 35088.25819
679.2163 34971.62637
679.4116 35063.88736
679.6069 34816.75897
679.8021 34384.76044
679.9974 34817.59864
680.1926 34968.61585
680.3878 34982.60348
680.5830 35154.03894
680.7782 35108.26684
680.9734 35049.96117
681.1685 35183.12010
681.3636 35071.64916
681.5588 35467.86968
681.7539 35351.07402
681.9490 35329.71370
682.1441 35329.26315
682.3391 35120.26794
682.5342 35775.76130
682.7292 35841.66493
682.9242 36062.96843
683.1192 36009.98748
683.3142 36182.46741
683.5092 36369.73367
683.7041 36654.95428
683.8991 36295.31049
684.0940 36194.40707
684.2889 35871.93391
684.4838 36278.64002
684.6787 36162.06964
684.8736 35747.78604
685.0684 36267.17140
685.2633 36255.82565
685.4581 36573.17889
685.6529 36863.51942
685.8477 37124.88119
686.0425 36922.45996
686.2372 36745.06491
686.4320 36569.84070
686.6267 36546.73961
686.8214 36801.26117
687.0161 36681.59835
687.2108 36965.30347
687.4055 37127.66643
687.6002 37051.01096
687.7948 37154.33098
687.9894 37319.33582
688.1841 37243.90913
688.3787 37298.11887
688.5732 37283.02534
688.7678 37301.98953
688.9624 37032.76356
689.1569 37312.37273
689.3514 36971.11970
689.5459 36772.61009
689.7404 37237.31468
689.9349 37090.39340
690.1294 37339.93839
690.3238 37400.35347
690.5182 37403.24110
690.7127 37432.28130
690.9071 37479.83513
691.1015 37337.66514
691.2958 37769.27456
691.4902 37635.00973
691.6845 38361.23992
691.8789 37871.32484
692.0732 37841.56785
692.2675 37647.07226
692.4618 38062.07265
692.6560 37958.22015
692.8503 38429.53968
693.0445 38320.99734
693.2387 37699.33643
693.4329 38233.34428
693.6271 38196.72660
693.8213 38290.97412
694.0155 38427.22548
694.2096 38279.85365
694.4038 37912.42757
694.5979 38051.25938
694.7920 38082.40898
694.9861 37909.31466
695.1801 37968.89007
695.3742 37878.77945
695.5682 37943.10615
695.7623 38131.58071
695.9563 38053.43022
696.1503 38349.27979
696.3443 37780.90702
696.5382 38476.41769
696.7322 38286.85770
696.9261 38594.23733
697.1201 37995.55463
697.3140 38219.17233
697.5079 38572.13975
697.7017 38064.26398
697.8956 37976.42660
698.0894 38087.61082
698.2833 38332.87556
698.4771 38541.78885
698.6709 38861.78397
698.8647 38542.68996
699.0585 39062.48490
699.2522 38319.91192
699.4460 38340.96503
699.6397 38552.15157
699.8334 38136.47535
700.0271 38641.05390
700.2208 38905.01659
700.4144 39108.93284
700.6081 39188.10731
700.8017 38688.87397
700.9954 38983.86338
701.1890 38590.32571
701.3826 38420.38526
701.5761 38454.15627
701.7697 38556.30895
701.9632 38246.92231
702.1568 38811.81353
702.3503 38764.38257
702.5438 38685.55626
702.7373 37867.98665
702.9308 38643.36810
703.1242 38680.10866
703.3177 38559.50378
703.5111 38705.15532
703.7045 38842.61498
703.8979 39146.02155
704.0913 39409.55417
704.2847 39448.48605
704.4780 39297.48932
704.6713 38743.32945
704.8647 38847.16147
705.0580 38702.10384
705.2513 38569.10875
705.4445 38731.00068
705.6378 38728.87080
705.8311 38094.12336
706.0243 38163.38566
706.2175 38655.51255
706.4107 38647.89411
706.6039 39019.68236
706.7971 38843.74136
706.9902 38929.01878
707.1834 39070.61534
707.3765 38610.25245
707.5696 38417.06755
707.7627 38625.59173
707.9558 38655.86071
708.1489 38333.79714
708.3419 38065.39036
708.5349 38285.44460
708.7280 38220.31920
708.9210 38852.58859
709.1140 38896.02600
709.3069 38498.51527
709.4999 38259.86547
709.6929 38727.31434
709.8858 38251.89887
710.0787 38523.13185
710.2716 38039.29924
710.4645 38486.32986
710.6574 38423.70297
710.8502 38706.13834
711.0431 37957.36001
711.2359 38101.53701
711.4287 38028.32212
711.6215 38246.98375
711.8143 38120.52168
712.0071 38077.67817
712.1998 38364.66003
712.3925 38204.03784
712.5853 38613.65207
712.7780 38477.68743
712.9707 38288.16840
713.1633 38317.00380
713.3560 38687.50183
713.5487 38387.98640
713.7413 38656.08599
713.9339 38668.53764
714.1265 38424.03065
714.3191 38410.20686
714.5117 38059.61509
714.7042 38566.75359
714.8968 38779.51706
715.0893 39377.68778
715.2818 39077.04596
715.4743 39027.32128
715.6668 38566.73311
715.8592 38695.95994
716.0517 38629.11424
716.2441 38842.61498
716.4366 38368.67405
716.6290 38589.01501
716.8214 38774.56098
717.0137 38799.66907
717.2061 38780.58201
717.3984 38770.58792
717.5908 38392.28713
717.7831 38314.91487
717.9754 38701.01842
718.1677 37869.70695
718.3600 38149.25468
718.5522 38138.11373
718.7445 38246.20552
718.9367 37976.97955
719.1289 38286.18187
719.3211 37925.08402
719.5133 37899.87353
719.7054 37923.46612
719.8976 38202.15371
720.0897 38058.32487
720.2818 38252.14463
720.4740 38310.47078
720.6660 38124.94529
720.8581 38128.30396
721.0502 38057.32136
721.2422 38110.11800
721.4343 38348.09197
721.6263 38455.05737
721.8183 38536.09550
722.0103 38555.12113
722.2022 38261.27857
722.3942 38607.03713
722.5861 38057.69000
722.7781 38513.67024
722.9700 38668.57860
723.1619 38465.46105
723.3538 38035.26474
723.5456 37908.57739
723.7375 38203.46441
723.9293 38251.46880
724.1211 37954.88197
724.3129 37677.42316
724.5047 37652.74514
724.6965 37976.42660
724.8883 37931.80136
725.0800 38146.46944
725.2718 37913.67683
725.4635 38003.05019
725.6552 37611.35569
725.8469 38058.36583
726.0385 38401.21627
726.2302 38052.40624
726.4218 37368.75331
726.6135 37495.07202
726.8051 37412.88704
726.9967 37493.98660
727.1882 37875.27742
727.3798 38311.08517
727.5714 37973.08841
727.7629 38111.36726
727.9544 38032.00847
728.1459 37705.19362
728.3374 37673.85969
728.5289 38185.36037
728.7204 37741.72938
728.9118 38157.40560
729.1032 38446.47638
729.2946 38576.50192
729.4860 37535.96996
729.6774 37775.93046
729.8688 37880.92981
730.0602 37688.74843
730.2515 37631.95825
730.4428 37839.41749
730.6341 37626.10106
730.8254 37441.49716
731.0167 38068.78999
731.2080 37718.34157
731.3992 37867.16746
731.5905 37981.93563
731.7817 37737.59248
731.9729 37343.48138
732.1641 37736.11794
732.3553 37382.37230
732.5464 37914.29122
732.7376 37896.28958
732.9287 37838.65974
733.1198 37814.57563
733.3109 37842.61232
733.5020 37757.10962
733.6931 37906.07887
733.8841 37628.59958
734.0752 37801.61198
734.2662 37535.37605
734.4572 37453.84641
734.6482 37140.03616
734.8392 37212.55473
735.0302 37077.24544
735.2211 37304.71333
735.4120 37158.30404
735.6030 37569.94576
735.7939 37414.62781
735.9848 37395.60218
736.1756 37238.99401
736.3665 37045.44048
736.5574 36789.83350
736.7482 37305.59395
736.9390 37112.12235
737.1298 37392.24351
737.3206 37278.11021
737.5114 37469.14474
737.7021 37236.63885
737.8929 37221.34052
738.0836 37102.49689
738.2743 37305.47107
738.4650 37135.14151
738.6557 36737.20071
738.8463 36799.31560
739.0370 36811.95157
739.2276 36529.72099
739.4182 36336.39274
739.6088 36807.87611
739.7994 36392.32277
739.9900 36590.66854
740.1806 36697.20388
740.3711 36908.65665
740.5617 37030.51079
740.7522 36792.92594
740.9427 36624.19379
741.1332 36611.45543
741.3236 36644.89875
741.5141 36800.40102
741.7045 37062.33623
741.8949 37066.96463
742.0854 36556.81562
742.2758 37169.32211
742.4661 36666.09523
742.6565 36409.87386
742.8469 36507.25478
743.0372 36479.05425
743.2275 35923.76800
743.4178 36203.90964
743.6081 36383.47554
743.7984 36161.18902
743.9886 36225.80243
744.1789 36149.33128
744.3691 36031.59355
744.5593 36170.89639
744.7495 35826.18229
744.9397 35887.98998
745.1299 35778.77181
745.3200 35473.60399
745.5102 35791.30538
745.7003 35886.82264
745.8904 35907.19993
746.0805 36108.69958
746.2706 36060.71567
746.4607 36358.30601
746.6507 36438.81166
746.8408 35913.24144
747.0308 36190.16777
747.2208 35738.93882
747.4108 35930.50582
747.6007 35594.78230
747.7907 36090.24738
747.9806 36046.13413
748.1706 35967.71741
748.3605 36056.27158
748.5504 35849.63153
748.7403 36066.67526
748.9302 35710.82021
749.1200 35735.96926
749.3098 35887.98998
749.4997 35676.20954
749.6895 35485.87132
749.8793 35501.49732
750.0691 36068.53891
750.2588 35907.11801
750.4486 35640.00145
750.6383 35595.56053
750.8280 35094.60689
751.0177 35025.89754
751.2074 35096.22479
751.3971 35035.52299
751.5868 35226.02505
751.7764 34796.34072
751.9660 34552.57100
752.1557 34801.58352
752.3453 35439.38243
752.5348 35317.89692
752.7244 35378.78303
752.9140 35364.81589
753.1035 35487.05914
753.2930 35269.25767
753.4825 35159.91661
753.6720 34982.43964
753.8615 35142.22216
754.0510 34928.70094
754.2404 35000.97376
754.4299 35232.92670
754.6193 35062.53570
754.8087 34939.96477
754.9981 34972.40460
755.1875 34656.05486
755.3768 34454.47330
755.5662 34755.58614
755.7555 34733.48856
755.9448 35210.91104
756.1341 34839.90102
756.3234 34388.28295
756.5127 34577.18759
756.7019 34761.36142
756.8912 34832.22113
757.0804 34796.05401
757.2696 34662.69028
757.4588 34383.90030
757.6480 34187.23386
757.8371 34141.78943
758.0263 34029.06923
758.2154 33637.90720
758.4045 33430.55036
758.5936 33392.80630
758.7827 33897.97875
758.9718 34151.41488
759.1609 33996.67036
759.3499 33765.74141
759.5389 33080.55250
759.7280 33249.48945
759.9170 33675.52838
760.1059 33824.25188
760.2949 33777.02572
760.4839 33713.25197
760.6728 33854.47989
760.8617 33744.87261
761.0506 33309.49493
761.2395 33226.61363
761.4284 33138.30522
761.6173 33103.89935
761.8061 33216.20995
761.9950 33201.38266
762.1838 33094.90876
762.3726 33333.29233
762.5614 32816.26214
762.7502 33432.47545
762.9389 33100.39732
763.1277 32865.39291
763.3164 33236.34149
763.5051 33219.73246
763.6938 33274.74090
763.8825 33166.81295
764.0712 33619.27068
764.2598 33278.14053
764.4484 33576.79581
764.6371 33564.34416
764.8257 33224.40183
765.0143 33520.16947
765.2029 33265.87320
765.3914 33640.09852
765.5800 33795.62127
765.7685 33301.67169
765.9570 33077.58295
766.1455 32856.73000
766.3340 32813.66122
766.5225 32926.75005
766.7110 32822.67228
766.8994 32635.28314
767.0878 32500.52679
767.2762 32632.06783
767.4646 32424.79291
767.6530 32531.81976
767.8414 32709.62440
768.0298 32470.03254
768.2181 32686.27756
768.4064 32636.67576
768.5947 32513.77715
768.7830 32201.38000
768.9713 32272.36260
769.1596 31949.52080
769.3478 31927.77137
769.5360 32017.98440
769.7243 31747.71396
769.9125 31513.30346
770.1007 31399.62071
770.2888 31383.42128
770.4770 31261.17803
770.6651 31274.83798
770.8533 31068.36177
771.0414 31042.90552
771.2295 31125.74585
771.4176 31400.39894
771.6056 31630.83638
771.7937 31254.52213
771.9817 30915.66522
772.1698 31335.56025
772.3578 31197.95723
772.5458 31043.99094
772.7337 30791.94742
772.9217 31012.65702
773.1096 30918.77813
773.2976 31197.71147
773.4855 31423.09043
773.6734 31057.73281
773.8613 31149.91188
774.0492 30850.60125
774.2370 30854.79959
774.4249 31316.20695
774.6127 31516.72357
774.8005 31362.14288
774.9883 31202.54468
775.1761 31271.21307
775.3639 30776.05519
775.5516 31000.45112
775.7394 30605.41843
775.9271 30520.63253
776.1148 30492.10432
776.3025 29726.63504
776.4902 29972.30937
776.6778 29909.19098
776.8655 30263.71485
777.0531 30659.28001
777.2407 30437.91507
777.4283 29999.95695
777.6159 30379.32268
777.8035 30192.15882
777.9911 29726.16401
778.1786 30243.93147
778.3661 30040.07666
778.5536 30066.92553
778.7411 30476.21208
778.9286 30679.16579
779.1161 30354.70610
779.3036 29767.81969
779.4910 29837.36871
779.6784 29798.60066
779.8658 30070.55043
780.0532 29785.63702
780.2406 29925.75904
780.4280 29378.64419
780.6153 29707.48653
780.8026 29802.51228
780.9900 29768.76176
781.1773 29486.92030
781.3646 29692.98691
781.5518 29447.78362
781.7391 29753.52487
781.9263 29324.94645
782.1136 29214.45854
782.3008 28962.18975
782.4880 29108.27136
782.6752 29042.71588
782.8623 29024.61183
783.0495 29241.55316
783.2366 28799.27383
783.4237 28920.88222
783.6108 29242.08563
783.7979 28964.91354
783.9850 29032.04596
784.1721 29294.28836
784.3591 28873.81989
784.5462 28917.58499
784.7332 28961.00192
784.9202 28986.37626
785.1072 28747.33734
785.2941 28812.97474
785.4811 28525.29657
785.6681 28631.93430
785.8550 28710.55582
786.0419 28638.99980
786.2288 28374.62751
786.4157 28142.06018
786.6025 28286.05286
786.7894 28341.57330
786.9762 28337.66167
787.1631 27928.84615
787.3499 28355.21277
787.5367 28344.46093
787.7234 27954.91680
787.9102 28035.79108
788.0970 28000.79130
788.2837 28241.38666
788.4704 27821.61451
788.6571 27626.50453
788.8438 27702.48417
789.0305 27546.08079
789.2171 27512.94466
789.4038 27314.18929
789.5904 27336.73743
789.7770 27427.66724
789.9636 27325.69888
790.1502 27646.10359
790.3368 27614.58535
790.5233 27452.11999
790.7099 27306.81660
790.8964 26948.38111
791.0829 26610.79395
791.2694 26619.14966
791.4559 26644.89262
791.6423 26567.84804
791.8288 26648.33321
792.0152 26937.05585
792.2016 26889.85017
792.3880 27061.51091
792.5744 26678.95035
792.7608 26322.19419
792.9471 26550.17407
793.1335 26924.15364
793.3198 26587.38566
793.5061 26670.65607
793.6924 26157.18935
793.8787 26212.77122
794.0650 26198.27160
794.2512 26364.99674
794.4375 26572.33309
794.6237 26677.02525
794.8099 26571.00191
794.9961 26085.59236
795.1823 26060.95530
795.3684 26175.19099
795.5546 25865.66100
795.7407 25992.86033
795.9268 25598.91307
796.1129 25739.42420
796.2990 26242.15957
796.4851 26600.06259
796.6712 26228.56106
796.8572 25902.01244
797.0432 25729.49155
797.2292 26003.48929
797.4152 25904.81816
797.6012 25372.30532
797.7872 25315.16700
797.9731 25453.60968
798.1591 25217.78608
798.3450 25158.35403
798.5309 25525.08379
798.7168 25584.41345
798.9027 25531.80113
799.0885 25388.29996
799.2744 25260.34287
799.4602 25582.73411
799.6460 25518.61221
799.8318 25841.69976
800.0176 25475.64583
800.2034 25501.55263
800.3892 24948.90826
800.5749 24867.80870
800.7606 24917.10331
800.9463 24964.06323
801.1320 24976.39200
801.3177 25041.78365
801.5034 25050.52847
801.6890 25212.56376
801.8747 24932.68835
802.0603 24498.15034
802.2459 24487.78762
802.4315 24511.60550
802.6171 24260.95460
802.8026 24588.13809
802.9882 24626.27127
803.1737 24252.06642
803.3592 24510.06952
803.5447 24688.67288
803.7302 24698.03209
803.9157 24642.61406
804.1012 24681.50498
804.2866 24218.88932
804.4720 24358.37648
804.6574 24177.31556
804.8428 23969.38529
805.0282 23887.46654
805.2136 23994.18619
805.3989 24217.59910
805.5843 23931.10875
805.7696 23878.59884
805.9549 23754.75817
806.1402 23716.05156
806.3255 23503.61576
806.5107 23608.57416
806.6960 23925.35396
806.8812 23566.83655
807.0664 23648.63243
807.2516 23280.40764
807.4368 23122.38638
807.6220 23186.61068
807.8072 23111.53214
807.9923 23167.29833
808.1774 23148.84613
808.3625 23507.46594
808.5476 23470.70490
808.7327 23476.52113
808.9178 23185.50477
809.1028 23201.58133
809.2879 23107.19045
809.4729 23057.79344
809.6579 22835.77315
809.8429 23118.61811
810.0279 23026.58240
810.2128 23033.83221
810.3978 23016.95694
810.5827 23029.59291
810.7676 23201.92948
810.9525 23289.80782
811.1374 23048.84382
811.3223 22964.42655
811.5072 22520.75460
811.6920 22520.24260
811.8768 22797.10750
812.0616 22407.68624
812.2464 22578.95787
812.4312 22480.73729
812.6160 22469.28914
812.8007 22663.60042
812.9855 22790.67688
813.1702 22465.35704
813.3549 22384.66707
813.5396 22234.55096
813.7243 22120.15143
813.9089 22326.83243
814.0936 22388.35342
814.2782 22384.33940
814.4628 22372.80933
814.6474 22403.22167
814.8320 22251.18047
815.0166 22042.10334
815.2012 22242.57900
815.3857 22004.29784
815.5702 21989.65486
815.7547 22000.30430
815.9392 21975.11428
816.1237 21804.64136
816.3082 21416.48985
816.4926 21637.32232
816.6771 21633.75885
816.8615 21398.85683
817.0459 21656.04075
817.2303 21597.26405
817.4147 21767.34785
817.5990 21766.30339
817.7834 21586.14358
817.9677 21483.54034
818.1520 21712.81044
818.3363 21503.81523
818.5206 21250.39958
818.7049 21378.39763
818.8891 21354.92790
819.0734 21362.58731
819.2576 21291.07224
819.4418 21044.08721
819.6260 21025.53261
819.8102 21106.87793
819.9944 20934.60280
820.1785 20807.21914
820.3627 21036.42780
820.5468 20998.78614
820.7309 20823.09090
820.9150 20614.54624
821.0991 20470.18493
821.2831 20731.52622
821.4672 20520.62640
821.6512 20376.40844
821.8352 20412.18645
822.0192 20776.64297
822.2032 20530.35425
822.3872 20721.83933
822.5711 20536.55959
822.7551 20531.25535
822.9390 20663.14454
823.1229 20704.10392
823.3068 20683.46039
823.4907 20355.17100
823.6745 20381.71267
823.8584 20305.75351
824.0422 20249.29102
824.2261 20265.96148
824.4099 20386.77116
824.5937 20569.42949
824.7774 20414.21394
824.9612 20387.32411
825.1449 20284.98711
825.3287 20226.21041
825.5124 20128.95237
825.6961 20319.31107
825.8798 20347.53208
826.0634 20421.99622
826.2471 20162.06803
826.4307 20260.53436
826.6144 20235.52867
826.7980 20382.08131
826.9816 20078.20371
827.1652 20214.37315
827.3487 20078.01939
827.5323 19848.29873
827.7158 19653.25019
827.8993 19959.03240
828.0828 19891.79759
828.2663 19584.99139
828.4498 19783.52148
828.6333 20100.21937
828.8167 19867.79540
829.0001 19882.80701
829.1836 19958.29514
829.3670 20005.41890
829.5504 20160.59349
829.7337 19759.17113
829.9171 19753.04771
830.1004 19749.60712
830.2837 19660.33616
830.4671 19467.80662
830.6504 19245.45865
830.8336 19388.81647
831.0169 19329.91688
831.2002 19519.90695
831.3834 19509.11415
831.5666 19457.30054
831.7498 19561.05064
831.9330 19773.99843
832.1162 19667.15590
832.2993 19442.00221
832.4825 19520.35750
832.6656 19399.46590
832.8487 19233.08892
833.0318 19211.81053
833.2149 19055.28427
833.3980 19196.88083
833.5811 19268.78502
833.7641 19240.17489
833.9471 19104.66080
834.1301 18881.86228
834.3131 18688.14492
834.4961 18881.71892
834.6791 18900.74455
834.8620 19289.65382
835.0450 19200.01423
835.2279 19311.52612
835.4108 19210.86846
835.5937 19314.74144
835.7766 19038.47045
835.9594 19073.10160
836.1423 19005.43672
836.3251 19362.41815
836.5079 19310.27686
836.6907 18980.41054
836.8735 18897.03773
837.0563 18972.44394
837.2390 18896.81245
837.4218 18686.73182
837.6045 18895.07168
837.7872 19097.98442
837.9699 18810.44961
838.1526 18645.58813
838.3352 18726.66721
838.5179 18802.76973
838.7005 18793.53339
838.8831 18837.05272
839.0658 18928.67885
839.2483 19128.74491
839.4309 18998.22787
839.6135 19014.95977
839.7960 18700.08458
839.9786 18742.37513
840.1611 18450.31431
840.3436 18687.81724
840.5261 18470.07720
840.7085 18338.35185
840.8910 18251.76374
841.0734 18395.18299
841.2559 18329.83230
841.4383 18463.89234
841.6207 18734.01942
841.8030 18414.39293
841.9854 18334.50167
842.1678 18223.95232
842.3501 18236.67021
842.5324 18194.74829
842.7147 18321.94763
842.8970 18561.90812
843.0793 18353.46586
843.2615 18354.10073
843.4438 18582.79740
843.6260 18510.95466
843.8082 18468.72555
843.9904 18484.80210
844.1726 18100.82844
844.3548 17972.99423
844.5369 17901.54060
844.7191 18002.71026
844.9012 17896.46164
845.0833 17951.49056
845.2654 18236.46541
845.4475 18357.82804
845.6296 18001.03092
845.8116 17911.35037
845.9936 17917.51476
846.1757 17746.85752
846.3577 17678.74208
846.5397 17710.77231
846.7216 17668.56367
846.9036 17674.50278
847.0855 17362.65858
847.2675 17598.40027
847.4494 17654.92420
847.6313 17852.04120
847.8132 17839.38475
847.9950 17759.96452
848.1769 17628.54637
848.3587 17777.65897
848.5406 17601.08310
848.7224 17597.39676
848.9042 17566.63627
849.0860 17680.07326
849.2677 17454.34614
849.4495 17296.38631
849.6312 17308.83796
849.8129 17536.08058
849.9946 17756.79017
850.1763 17619.76058
850.3580 17363.68257
850.5397 17261.57085
850.7213 17077.35606
850.9029 17124.76653
851.0845 17193.16869
851.2661 17190.09674
851.4477 17174.02018
851.6293 17171.15302
851.8109 17143.93552
851.9924 17147.64234
852.1739 17259.35904
852.3554 17195.38050
852.5369 17227.06257
852.7184 16887.12024
852.8999 16786.21682
853.0813 16833.52490
853.2628 16868.64756
853.4442 16977.06703
853.6256 16857.83429
853.8070 16908.07096
853.9883 17095.50106
854.1697 16960.06889
854.3510 16645.89000
854.5324 16726.33421
854.7137 16679.96820
854.8950 16697.56025
855.0763 16680.50067
855.2575 16714.31264
855.4388 16679.06709
855.6200 16705.95692
855.8013 16729.63144
855.9825 16531.01943
856.1637 16457.47687
856.3449 16523.72866
856.5260 16535.44305
856.7072 16384.93782
856.8883 16597.23026
857.0694 16461.24514
857.2505 16428.29332
857.4316 16363.70039
857.6127 16246.53609
857.7938 16345.57586
857.9748 16247.31432
858.1558 16165.12934
858.3368 16104.24322
858.5178 16051.05748
858.6988 16179.52656
858.8798 16098.73419
859.0607 16281.10581
859.2417 16275.57629
859.4226 16230.80769
859.6035 16226.50696
859.7844 16257.61560
859.9653 16145.46884
860.1462 16040.77667
860.3270 16065.90525
860.5078 15975.58983
860.6887 16058.16393
860.8695 15976.26566
861.0503 15915.85058
861.2310 15621.49603
861.4118 15594.31949
861.5925 15646.93180
861.7733 15678.88012
861.9540 15445.47312
862.1347 15311.96603
862.3154 15277.94927
862.4960 15482.23416
862.6767 15465.68657
862.8573 15481.16921
863.0380 15342.64461
863.2186 15336.45974
863.3992 15147.37079
863.5797 15200.31078
863.7603 15237.80909
863.9409 15271.23194
864.1214 15254.06996
864.3019 15174.97740
864.4824 15045.79154
864.6629 14962.02961
864.8434 14779.24840
865.0238 14865.85700
865.2043 14933.84956
865.3847 14709.39219
865.5651 14654.26087
865.7455 14787.01020
865.9259 14818.71276
866.1063 14699.17282
866.2866 14634.47749
866.4670 14595.01313
866.6473 14527.02057
866.8276 14518.29622
867.0079 14561.81556
867.1882 14372.66517
867.3684 14160.45465
867.5487 14251.63021
867.7289 14332.75026
867.9091 14319.99141
868.0893 14127.17515
868.2695 13901.14084
868.4497 13821.65918
868.6299 13881.23459
868.8100 13871.79345
868.9901 13880.92739
869.1703 14105.46668
869.3504 14092.33920
869.5304 14022.83115
869.7105 14176.85888
869.8906 14055.57817
870.0706 13839.23075
870.2506 13860.71394
870.4306 13871.09714
870.6106 13866.03866
870.7906 14035.65143
870.9706 13956.06736
871.1505 13846.93111
871.3305 13750.06219
871.5104 13696.99932
871.6903 13568.32544
871.8702 13643.24014
872.0500 13647.90951
872.2299 13622.28942
872.4097 13453.16816
872.5896 13454.80653
872.7694 13504.10114
872.9492 13518.02733
873.1290 13151.13373
873.3087 13200.59217
873.4885 13532.46551
873.6682 13482.63843
873.8480 13351.46603
874.0277 13290.33416
874.2074 12996.81928
874.3870 13036.16076
874.5667 13039.27367
874.7463 13214.43644
874.9260 13047.15835
875.1056 13028.89047
875.2852 12948.65106
875.4648 13000.95618
875.6444 12979.49347
875.8239 13082.60869
876.0035 12952.39884
876.1830 12852.00741
876.3625 12763.53516
876.5420 12791.83809
876.7215 12789.93348
876.9010 12673.07638
877.0804 12685.63043
877.2599 12510.11951
877.4393 12720.32302
877.6187 12770.47778
877.7981 12847.01037
877.9775 12727.81859
878.1568 12820.83733
878.3362 12697.14001
878.5155 12696.93522
878.6948 12447.43118
878.8741 12447.41070
879.0534 12397.89082
879.2327 12320.62096
879.4119 12380.95412
879.5912 12250.94906
879.7704 12379.04951
879.9496 12538.93443
880.1288 12486.99794
880.3080 12281.79147
880.4872 12347.08072
880.6663 12351.75008
880.8455 12325.47465
881.0246 12371.18531
881.2037 12355.45691
881.3828 12203.92770
881.5619 12229.83450
881.7409 12228.95388
881.9200 12171.01684
882.0990 12205.91423
882.2780 12085.86230
882.4570 12066.59092
882.6360 12128.89012
882.8150 11959.19543
882.9940 11917.78551
883.1729 11961.79635
883.3518 12156.49674
883.5308 12088.50418
883.7096 12078.67393
883.8885 11881.20878
884.0674 11773.11699
884.2463 11694.37260
884.4251 11791.99927
884.6039 11733.61168
884.7827 11774.55057
884.9615 11734.34895
885.1403 11673.64715
885.3191 11621.42395
885.4978 11500.96243
885.6765 11492.40192
885.8553 11594.71844
886.0340 11705.18587
886.2127 11600.53467
886.3913 11420.86637
886.5700 11299.05319
886.7486 11230.42575
886.9273 11230.03664
887.1059 11195.56933
887.2845 11076.54138
887.4630 11122.41588
887.6416 11182.03225
887.8202 11229.72945
887.9987 11223.89273
888.1772 11210.51950
888.3557 11193.31656
888.5342 11064.29453
888.7127 11209.86415
888.8912 11216.27429
889.0696 11245.62168
889.2481 11044.81835
889.4265 10907.93212
889.6049 10813.99179
889.7833 10800.92575
889.9616 10726.21585
890.1400 10741.53465
890.3183 10622.24048
890.4967 10736.74241
890.6750 10921.87878
890.8533 10770.16526
891.0316 10651.30115
891.2098 10529.16030
891.3881 10515.15219
891.5663 10456.62124
891.7445 10520.16971
891.9227 10482.03653
892.1009 10453.95888
892.2791 10543.92615
892.4573 10496.14704
892.6354 10431.26739
892.8136 10497.06862
892.9917 10465.07935
893.1698 10360.85822
893.3479 10456.82604
893.5259 10499.05515
893.7040 10364.68793
893.8820 10380.47776
894.0601 10274.00387
894.2381 10388.34196
894.4161 10461.06533
894.5941 10563.58665
894.7720 10505.91585
894.9500 10530.90107
895.1279 10551.07356
895.3058 10362.00509
895.4838 10325.20309
895.6616 10228.92808
895.8395 10158.78515
896.0174 10181.92719
896.1952 10242.64947
896.3731 10316.60162
896.5509 10269.23210
896.7287 10206.97385
896.9065 10168.96355
897.0842 10282.19574
897.2620 10188.50117
897.4397 10072.77046
897.6175 10075.51474
897.7952 10178.99860
897.9729 10255.06016
898.1506 10160.07537
898.3282 10081.33097
898.5059 10043.93506
898.6835 10068.89980
898.8611 10116.08500
899.0388 9929.69936
899.2163 9761.90928
899.3939 9750.62497
899.5715 9954.37739
899.7490 9946.86134
899.9266 9834.57121
900.1041 9866.47857
900.2816 9918.12834
900.4591 9860.39610
900.6365 9954.00875
900.8140 9800.73877
900.9914 9784.04782
901.1689 9794.20575
901.3463 9846.81807
901.5237 9872.45864
901.7011 9721.78957
901.8784 9709.31745
902.0558 9592.62419
902.2331 9667.51840
902.4104 9701.71948
902.5878 9683.00105
902.7650 9601.16422
902.9423 9564.52605
903.1196 9676.91858
903.2968 9717.16117
903.4741 9677.24625
903.6513 9614.00498
903.8285 9554.01998
904.0057 9614.45553
904.1828 9485.98645
904.3600 9354.67070
904.5371 9363.29265
904.7143 9359.36055
904.8914 9407.61069
905.0685 9517.27942
905.2456 9430.89609
905.4226 9429.27820
905.5997 9510.82831
905.7767 9594.56976
905.9537 9487.99346
906.1307 9417.64574
906.3077 9372.52898
906.4847 9354.95741
906.6617 9303.16428
906.8386 9435.07395
907.0156 9316.18936
907.1925 9246.31267
907.3694 9230.37947
907.5463 9216.47377
907.7231 9204.34979
907.9000 9252.70233
908.0768 9225.11619
908.2537 9131.50354
908.4305 9036.10916
908.6073 9132.73232
908.7841 9166.31901
908.9608 9103.63069
909.1376 9077.94916
909.3143 9107.76758
909.4910 9080.20193
909.6677 9107.07128
909.8444 9081.77886
910.0211 9055.76966
910.1978 9020.01212
910.3744 9089.25395
910.5510 9124.47901
910.7277 9121.20226
910.9043 8988.63724
911.0808 8956.66845
911.2574 8959.59705
911.4340 8934.16127
911.6105 8798.70862
911.7870 8813.55639
911.9636 8853.67610
912.1401 8809.48094
912.3165 8850.52223
912.4930 8759.51050
912.6695 8696.96553
912.8459 8704.27678
913.0223 8686.76665
913.1987 8672.16463
913.3751 8660.16353
913.5515 8646.23735
913.7279 8705.32125
913.9042 8643.16539
914.0805 8560.59129
914.2568 8538.63707
914.4331 8551.17064
914.6094 8558.62524
914.7857 8582.03353
914.9620 8576.58593
915.1382 8502.06035
915.3144 8475.35483
915.4906 8561.96343
915.6668 8601.20251
915.8430 8490.57124
916.0192 8331.68983
916.1953 8382.43849
916.3715 8391.24476
916.5476 8343.32229
916.7237 8433.78107
916.8998 8375.86451
917.0759 8272.64689
917.2519 8215.46760
917.4280 8341.99111
917.6040 8276.49707
917.7800 8280.94116
917.9560 8230.37681
918.1320 8265.54044
918.3080 8296.05517
918.4839 8233.22349
918.6599 8234.88234
918.8358 8219.78881
919.0117 8184.68663
919.1876 8168.79439
919.3635 8157.69440
919.5394 8270.29172
919.7152 8226.54711
919.8911 8171.60011
920.0669 8142.17080
920.2427 7974.44216
920.4185 7932.74551
920.5942 7952.91801
920.7700 7908.76380
920.9458 8014.04987
921.1215 8002.45837
921.2972 7998.64915
921.4729 7967.02851
921.6486 7850.08950
921.8243 7697.67966
921.9999 7719.92060
922.1756 7732.84328
922.3512 7773.57738
922.5268 7698.80604
922.7024 7823.26110
922.8780 7852.50610
923.0535 7839.70629
923.2291 7756.00581
923.4046 7804.46075
923.5801 7915.68593
923.7557 7840.32068
923.9311 7815.58122
924.1066 7749.77999
924.2821 7805.44378
924.4575 7808.94580
924.6330 7765.16023
924.8084 7677.26141
924.9838 7618.87382
925.1592 7638.16569
925.3345 7601.65041
925.5099 7527.47298
925.6852 7494.74644
925.8606 7564.43881
926.0359 7445.75903
926.2112 7447.70460
926.3864 7394.70316
926.5617 7274.15972
926.7370 7268.60973
926.9122 7246.00015
927.0874 7267.25807
927.2626 7259.31195
927.4378 7242.92820
927.6130 7243.44019
927.7882 7242.33429
927.9633 7138.60467
928.1384 7104.44455
928.3135 7082.42889
928.4886 6997.58154
928.6637 7058.32430
928.8388 7082.69513
929.0139 7043.57892
929.1889 7031.06583
929.3639 7016.79149
929.5389 7032.31509
929.7139 7025.29056
929.8889 7039.42155
930.0639 7044.64387
930.2388 6954.14413
930.4138 6901.61373
930.5887 6877.48866
930.7636 6902.82203
930.9385 6896.94436
931.1134 6859.24125
931.2882 6824.15955
931.4631 6732.28767
931.6379 6707.32293
931.8127 6622.55751
931.9875 6625.79330
932.1623 6649.01726
932.3371 6650.96283
932.5118 6602.44645
932.6866 6557.16586
932.8613 6608.48796
933.0360 6604.74018
933.2107 6571.95220
933.3854 6531.81201
933.5600 6550.98100
933.7347 6429.22926
933.9093 6433.79623
934.0839 6483.54139
934.2586 6518.31590
934.4331 6472.54380
934.6077 6413.19366
934.7823 6377.16989
934.9568 6439.01855
935.1314 6378.82875
935.3059 6362.11732
935.4804 6276.47127
935.6549 6284.58122
935.8293 6296.31608
936.0038 6279.46130
936.1782 6288.49284
936.3526 6297.64726
936.5271 6225.45637
936.7015 6173.23316
936.8758 6180.60585
937.0502 6131.33172
937.2246 6137.16843
937.3989 6247.28771
937.5732 6146.79389
937.7475 6124.94206
937.9218 6073.29229
938.0961 6066.14488
938.2703 6035.63014
938.4446 6008.41264
938.6188 6037.00228
938.7930 6021.08956
938.9672 6000.97851
939.1414 6058.42403
939.3156 5982.91543
939.4897 5954.81730
939.6639 5882.42160
939.8380 5876.17530
940.0121 5851.02624
940.1862 5870.64578
940.3603 5906.46475
940.5344 5919.18264
940.7084 5913.48929
940.8824 5871.93600
941.0565 5838.10356
941.2305 5806.05285
941.4045 5733.02228
941.5784 5695.11438
941.7524 5713.62802
941.9263 5791.73754
942.1003 5769.70140
942.2742 5775.76339
942.4481 5670.98931
942.6220 5710.80182
942.7958 5680.45092
942.9697 5697.51050
943.1435 5647.66294
943.3174 5647.68342
943.4912 5600.17055
943.6650 5575.94308
943.8387 5526.73039
944.0125 5517.08445
944.1863 5560.74715
944.3600 5569.94253
944.5337 5569.63533
944.7074 5606.49877
944.8811 5554.41892
945.0548 5529.84330
945.2284 5466.37675
945.4021 5462.62897
945.5757 5497.21916
945.7493 5451.01698
945.9229 5312.51286
946.0965 5233.50222
946.2701 5239.07270
946.4436 5282.34628
946.6172 5274.13392
946.7907 5256.33707
946.9642 5262.07139
947.1377 5268.76824
947.3112 5228.44374
947.4847 5244.82749
947.6581 5275.58798
947.8315 5283.86177
948.0050 5192.29709
948.1784 5153.54952
948.3518 5192.87052
948.5251 5183.79802
948.6985 5259.69574
948.8718 5210.64689
949.0452 5093.19588
949.2185 5081.64534
949.3918 5086.04847
949.5651 5105.52465
949.7383 5081.99349
949.9116 5067.26860
950.0848 5094.93666
950.2581 5123.81302
950.4313 5124.98036
950.6045 5165.65302
950.7776 5157.80930
950.9508 5053.85440
951.1239 5036.46715
951.2971 4945.27110
951.4702 4973.94266
951.6433 4965.62791
951.8164 4921.04363
951.9895 4929.93181
952.1625 4876.76655
952.3356 4906.13442
952.5086 4876.84846
952.6816 4898.70029
952.8546 4849.36472
953.0276 4806.25498
953.2006 4830.89205
953.3735 4823.06880
953.5465 4850.63446
953.7194 4848.91417
953.8923 4812.76752
954.0652 4816.45387
954.2381 4792.14448
954.4109 4755.79303
954.5838 4731.99563
954.7566 4729.14896
954.9294 4686.65361
955.1022 4665.37521
955.2750 4690.48331
955.4478 4666.80879
955.6206 4709.95949
955.7933 4716.30819
955.9660 4690.11467
956.1388 4711.35211
956.3115 4685.83442
956.4841 4628.77801
956.6568 4570.30850
956.8295 4594.02398
957.0021 4573.25758
957.1747 4581.32657
957.3473 4573.50333
957.5199 4525.41703
957.6925 4541.55502
957.8651 4537.66388
958.0376 4522.32459
958.2102 4491.68698
958.3827 4544.23786
958.5552 4567.52326
958.7277 4547.47365
958.9001 4505.89988
959.0726 4427.27836
959.2450 4390.23061
959.4175 4401.37156
959.5899 4370.11956
959.7623 4329.97937
959.9347 4308.76241
960.1070 4292.80874
960.2794 4323.69210
960.4517 4302.49563
960.6241 4305.48566
960.7964 4328.89395
960.9687 4336.90150
961.1409 4345.60537
961.3132 4321.78749
961.4855 4308.18898
961.6577 4274.47942
961.8299 4235.77281
962.0021 4212.26212
962.1743 4193.01122
962.3465 4159.81365
962.5186 4148.11974
962.6908 4147.73063
962.8629 4140.70610
963.0350 4103.71978
963.2071 4121.92622
963.3792 4132.65758
963.5513 4137.18359
963.7233 4181.39924
963.8954 4161.75922
964.0674 4172.01954
964.2394 4125.69449
964.4114 4105.09192
964.5834 4078.48881
964.7553 4073.47128
964.9273 4081.74508
965.0992 4076.19508
965.2711 4113.18140
965.4430 4066.50819
965.6149 4048.42462
965.7868 4025.13922
965.9587 4030.21818
966.1305 4049.85820
966.3023 4048.38367
966.4741 4026.06081
966.6459 4012.29846
966.8177 4015.34993
966.9895 4014.36690
967.1613 4013.01525
967.3330 4014.14163
967.5047 3968.59480
967.6764 3972.13779
967.8481 3973.83760
968.0198 3939.65700
968.1915 3903.67419
968.3631 3877.15300
968.5347 3877.74691
968.7064 3876.27237
968.8780 3885.59063
969.0496 3873.99913
969.2211 3848.89103
969.3927 3866.33972
969.5642 3805.96560
969.7358 3790.97447
969.9073 3765.80494
970.0788 3805.65841
970.2503 3829.53773
970.4217 3827.69455
970.5932 3797.17982
970.7646 3787.71820
970.9360 3806.72335
971.1074 3843.93495
971.2788 3857.51298
971.4502 3820.89530
971.6216 3743.09296
971.7929 3726.89353
971.9643 3740.57396
972.1356 3775.20511
972.3069 3759.90679
972.4782 3736.33467
972.6494 3714.38044
972.8207 3710.16163
972.9919 3675.61239
973.1632 3662.81259
973.3344 3659.96591
973.5056 3622.32425
973.6768 3597.83054
973.8479 3628.65247
974.0191 3670.75871
974.1902 3662.32108
974.3614 3659.96591
974.5325 3646.12164
974.7036 3625.74435
974.8746 3617.69584
975.0457 3621.79177
975.2167 3597.33903
975.3878 3556.83021
975.5588 3521.64610
975.7298 3536.53484
975.9008 3503.70590
976.0718 3502.53855
976.2427 3489.92307
976.4137 3500.18339
976.5846 3501.33025
976.7555 3483.24669
976.9264 3487.60886
977.0973 3484.18875
977.2682 3496.51753
977.4390 3511.89777
977.6098 3529.03927
977.7807 3517.57065
977.9515 3509.09205
978.1223 3522.19905
978.2930 3489.30868
978.4638 3448.12403
978.6346 3411.01483
978.8053 3379.84475
978.9760 3381.09401
979.1467 3342.61267
979.3174 3363.66579
979.4881 3355.18720
979.6587 3374.95010
979.8294 3364.91505
980.0000 3343.78002
980.1706 3328.89128
980.3412 3315.29277
980.5118 3351.86949
980.6824 3339.25401
980.8529 3360.77816
981.0235 3334.23648
981.1940 3329.07560
981.3645 3299.89205
981.5350 3297.74168
981.7055 3282.95535
981.8759 3288.21862
982.0464 3289.32453
982.2168 3263.86828
982.3872 3289.91844
982.5576 3274.41532
982.7280 3262.16846
982.8984 3263.09005
983.0687 3260.98064
983.2391 3264.50315
983.4094 3267.69798
983.5797 3242.18029
983.7500 3220.51278
983.9203 3196.55154
984.0906 3217.54322
984.2608 3182.58440
984.4311 3197.32977
984.6013 3169.14972
984.7715 3210.58013
984.9417 3221.35245
985.1119 3204.25191
985.2820 3148.54716
985.4522 3125.15935
985.6223 3163.84548
985.7924 3158.56172
985.9625 3183.81318
986.1326 3188.60542
986.3027 3150.69752
986.4727 3152.58165
986.6428 3146.70398
986.8128 3137.65196
986.9828 3122.72227
987.1528 3099.98982
987.3228 3099.53926
987.4928 3113.01490
987.6627 3107.50586
987.8327 3081.49666
988.0026 3087.00570
988.1725 3111.99091
988.3424 3084.32286
988.5123 3078.60902
988.6821 3074.79980
988.8520 3054.60683
989.0218 3017.41572
989.1916 3032.69356
989.3614 3002.28123
989.5312 3002.15835
989.7010 2992.98345
989.8707 3002.77274
990.0405 3005.18934
990.2102 3007.87218
990.3799 3000.70429
990.5496 2982.78457
990.7193 2963.86133
990.8890 2976.88642
991.0586 2942.07095
991.2283 2973.52775
991.3979 2962.48920
991.5675 2981.51482
991.7371 2970.14860
991.9067 2946.88367
992.0762 2915.44735
992.2458 2935.90656
992.4153 2960.91226
992.5848 2966.62609
992.7543 2939.51099
992.9238 2915.18112
993.0933 2921.20215
993.2627 2913.05123
993.4322 2892.57154
993.6016 2918.94938
993.7710 2869.59333
993.9404 2888.33225
994.1098 2869.63429
994.2792 2884.37967
994.4485 2865.16972
994.6179 2883.94959
994.7872 2876.61787
994.9565 2874.93853
995.1258 2900.62006
995.2951 2887.10347
995.4643 2887.04203
995.6336 2885.17837
995.8028 2873.77119
995.9720 2848.06918
996.1412 2845.18155
996.3104 2854.76604
996.4796 2867.83208
996.6487 2854.47932
996.8179 2859.02581
996.9870 2856.52729
997.1561 2825.23433
997.3252 2825.97160
997.4943 2803.34154
997.6634 2802.85003
997.8324 2810.14080
998.0014 2808.97346
998.1705 2787.01923
998.3395 2764.45062
998.5085 2739.46540
998.6774 2751.65081
998.8464 2732.44087
999.0153 2736.84400
999.1843 2752.63384
999.3532 2753.18679
999.5221 2721.58663
999.6910 2726.76799
999.8599 2754.68181
1000.0287 2776.14452
1000.1976 2769.42718
1000.3664 2768.83327
1000.5352 2774.01463
1000.7040 2772.58105
1000.8728 2756.79121
1001.0415 2721.97575
1001.2103 2697.03149
1001.3790 2708.47963
1001.5478 2679.91047
1001.7165 2675.65069
1001.8851 2682.12227
1002.0538 2682.81858
1002.2225 2687.83611
1002.3911 2678.41545
1002.5598 2660.04517
1002.7284 2653.51215
1002.8970 2642.49408
1003.0656 2651.23890
1003.2341 2618.79908
1003.4027 2619.88450
1003.5712 2588.59154
1003.7398 2591.64301
1003.9083 2598.58563
1004.0768 2577.02052
1004.2453 2570.18030
1004.4137 2618.02085
1004.5822 2601.59614
1004.7506 2605.58968
1004.9190 2582.79579
1005.0874 2585.13047
1005.2558 2587.05556
1005.4242 2588.85778
1005.5926 2595.39080
1005.7609 2566.78067
1005.9292 2558.73216
1006.0976 2584.94616
1006.2659 2584.49560
1006.4342 2609.62418
1006.6024 2581.09597
1006.7707 2581.25981
1006.9389 2569.44303
1007.1071 2571.32716
1007.2754 2568.25521
1007.4436 2568.33713
1007.6117 2543.72055
1007.7799 2547.63217
1007.9481 2541.87737
1008.1162 2544.27350
1008.2843 2523.30230
1008.4524 2536.79841
1008.6205 2518.28477
1008.7886 2533.46022
1008.9566 2526.12849
1009.1247 2513.36965
1009.2927 2502.72021
1009.4607 2496.00287
1009.6287 2488.05675
1009.7967 2496.92446
1009.9647 2477.32540
1010.1327 2458.44313
1010.3006 2435.73115
1010.4685 2424.48780
1010.6364 2443.26768
1010.8043 2446.95402
1010.9722 2423.34094
1011.1401 2418.05718
1011.3079 2417.91382
1011.4758 2423.56622
1011.6436 2419.51124
1011.8114 2430.14020
1011.9792 2426.86345
1012.1470 2449.35015
1012.3147 2449.53446
1012.4825 2438.29111
1012.6502 2439.60181
1012.8179 2440.48244
1012.9856 2414.49372
1013.1533 2415.04667
1013.3210 2382.15629
1013.4886 2387.29669
1013.6563 2376.60630
1013.8239 2390.10241
1013.9915 2399.56403
1014.1591 2377.44596
1014.3267 2386.94854
1014.4942 2395.50905
1014.6618 2392.72381
1014.8293 2388.03396
1014.9969 2391.82270
1015.1644 2412.38431
1015.3319 2404.52011
1015.4993 2379.84209
1015.6668 2359.32144
1015.8342 2354.42679
1016.0017 2344.28935
1016.1691 2364.78952
1016.3365 2353.23897
1016.5039 2353.03418
1016.6712 2347.15650
1016.8386 2346.62403
1017.0059 2345.60005
1017.1733 2354.26296
1017.3406 2342.95817
1017.5079 2339.08751
1017.6752 2328.60191
1017.8424 2326.55394
1018.0097 2315.06483
1018.1769 2326.45154
1018.3441 2304.49732
1018.5113 2308.87997
1018.6785 2299.54123
1018.8457 2299.88939
1019.0129 2302.22407
1019.1800 2310.90746
1019.3471 2319.40653
1019.5142 2303.88292
1019.6813 2287.80637
1019.8484 2299.50027
1020.0155 2279.88073
1020.1826 2281.21191
1020.3496 2274.65841
1020.5166 2253.78961
1020.6836 2251.20917
1020.8506 2253.81009
1021.0176 2245.04478
1021.1846 2248.28057
1021.3515 2253.54385
1021.5185 2257.33260
1021.6854 2248.89496
1021.8523 2262.90307
1022.0192 2251.00437
1022.1861 2258.49994
1022.3529 2235.56269
1022.5198 2252.11028
1022.6866 2239.53575
1022.8534 2256.00142
1023.0202 2237.09866
1023.1870 2241.23556
1023.3538 2216.55754
1023.5205 2233.06417
1023.6873 2208.67286
1023.8540 2212.87119
1024.0207 2213.85422
1024.1874 2208.61142
1024.3541 2204.37212
1024.5207 2213.21935
1024.6874 2194.19372
1024.8540 2206.50201
1025.0206 2189.77011
1025.1872 2194.11180
1025.3538 2188.19317
1025.5204 2193.76365
1025.6870 2184.26107
1025.8535 2175.29097
1026.0201 2177.31846
1026.1866 2185.01882
1026.3531 2164.04762
1026.5196 2168.59411
1026.6860 2180.28801
1026.8525 2173.14060
1027.0189 2153.27530
1027.1853 2158.02659
1027.3518 2149.58896
1027.5181 2168.83987
1027.6845 2153.09099
1027.8509 2143.01498
1028.0172 2126.03732
1028.1836 2122.10522
1028.3499 2122.59673
1028.5162 2125.68916
1028.6825 2117.08770
1028.8488 2132.16075
1029.0150 2116.43235
1029.1813 2112.72552
1029.3475 2099.45468
1029.5137 2107.76944
1029.6799 2119.34046
1029.8461 2107.60560
1030.0123 2096.60801
1030.1784 2103.48918
1030.3446 2100.17147
1030.5107 2107.13457
1030.6768 2097.55007
1030.8429 2092.22535
1031.0090 2085.30322
1031.1750 2093.82277
1031.3411 2093.22886
1031.5071 2098.38974
1031.6732 2079.42555
1031.8392 2090.48458
1032.0051 2068.03884
1032.1711 2076.45600
1032.3371 2061.71062
1032.5030 2062.91892
1032.6690 2065.21265
1032.8349 2068.75563
1033.0008 2045.30639
1033.1667 2047.94827
1033.3325 2045.38831
1033.4984 2054.60417
1033.6642 2045.30639
1033.8300 2072.99493
1033.9959 2046.20750
1034.1616 2056.67262
1034.3274 2052.90435
1034.4932 2047.23148
1034.6589 2031.03205
1034.8247 2039.32632
1034.9904 2035.96765
1035.1561 2039.98167
1035.3218 2036.47965
1035.4875 2028.26729
1035.6531 2018.74424
1035.8188 2034.61599
1035.9844 2013.48096
1036.1500 2009.05734
1036.3156 2005.12524
1036.4812 2005.71915
1036.6468 2007.82856
1036.8123 2000.84499
1036.9779 1999.06326
1037.1434 2011.33059
1037.3089 2002.64720
1037.4744 2010.96195
1037.6399 2005.51436
1037.8053 2002.68816
1037.9708 1998.03927
1038.1362 1998.51030
1038.3016 2002.56528
1038.4670 2009.79461
1038.6324 1992.81695
1038.7978 1968.73284
1038.9632 1977.02711
1039.1285 1987.14408
1039.2938 1968.69188
1039.4592 1974.91770
1039.6245 1972.13247
1039.7897 1972.58302
1039.9550 1971.25184
1040.1203 1966.39815
1040.2855 1960.88912
1040.4507 1973.97564
1040.6159 1959.92657
1040.7811 1958.18580
1040.9463 1961.89262
1041.1115 1958.39060
1041.2766 1948.06883
1041.4418 1944.15721
1041.6069 1924.70151
1041.7720 1937.97235
1041.9371 1923.08362
1042.1021 1931.31645
1042.2672 1931.82844
1042.4323 1935.94486
1042.5973 1926.62660
1042.7623 1917.71794
1042.9273 1922.73546
1043.0923 1925.25446
1043.2572 1906.61795
1043.4222 1903.54599
1043.5871 1899.92109
1043.7521 1916.57108
1043.9170 1916.01812
1044.0819 1904.34470
1044.2467 1896.89010
1044.4116 1902.03050
1044.5765 1893.34711
1044.7413 1900.49452
1044.9061 1887.81759
1045.0709 1890.19324
1045.2357 1887.89951
1045.4005 1872.72406
1045.5652 1875.59122
1045.7300 1873.66613
1045.8947 1868.75100
1046.0594 1865.74049
1046.2241 1864.94178
1046.3888 1872.41687
1046.5535 1871.35192
1046.7181 1871.35192
1046.8828 1873.15414
1047.0474 1850.19641
1047.2120 1841.86117
1047.3766 1852.75637
1047.5412 1847.49309
1047.7057 1845.89567
1047.8703 1847.92316
1048.0348 1849.17242
1048.1993 1844.78977
1048.3639 1853.02260
1048.5283 1839.07594
1048.6928 1828.44698
1048.8573 1814.15216
1049.0217 1826.43997
1049.1861 1810.52725
1049.3506 1836.18830
1049.5150 1810.69109
1049.6793 1830.98646
1049.8437 1813.47633
1050.0081 1815.46286
1050.1724 1805.05918
1050.3367 1809.85142
1050.5010 1808.04921
1050.6653 1805.32541
1050.8296 1799.71398
1050.9939 1808.02873
1051.1581 1785.76731
1051.3224 1787.13945
1051.4866 1788.85974
1051.6508 1795.90476
1051.8150 1780.19684
1051.9791 1773.93005
1052.1433 1774.25773
1052.3074 1772.04592
1052.4716 1759.02084
1052.6357 1763.11678
1052.7998 1760.59778
1052.9639 1773.39758
1053.1279 1756.99335
1053.2920 1757.13671
1053.4560 1755.12970
1053.6201 1769.42452
1053.7841 1762.11327
1053.9481 1751.70959
1054.1120 1757.15719
1054.2760 1746.13912
1054.4399 1749.53874
1054.6039 1740.05665
1054.7678 1733.89226
1054.9317 1746.89686
1055.0956 1740.26145
1055.2595 1732.49964
1055.4233 1726.74485
1055.5872 1727.15445
1055.7510 1712.81866
1055.9148 1715.54246
1056.0786 1715.35815
1056.2424 1726.49910
1056.4062 1704.70871
1056.5699 1723.55002
1056.7336 1698.13473
1056.8974 1694.83750
1057.0611 1697.02882
1057.2248 1699.05631
1057.3885 1689.79950
1057.5521 1691.72459
1057.7158 1677.98272
1057.8794 1698.36000
1058.0430 1686.33843
1058.2066 1689.75854
1058.3702 1675.79139
1058.5338 1691.15115
1058.6973 1683.26647
1058.8609 1687.77201
1059.0244 1667.02608
1059.1879 1682.14009
1059.3514 1659.73531
1059.5149 1674.84932
1059.6784 1666.45265
1059.8418 1660.24731
1060.0053 1666.26833
1060.1687 1657.29823
1060.3321 1647.75470
1060.4955 1651.66632
1060.6589 1651.60488
1060.8222 1654.77923
1060.9856 1648.53293
1061.1489 1653.03846
1061.3122 1643.67924
1061.4755 1655.08643
1061.6388 1644.33459
1061.8021 1654.14436
1061.9654 1639.72666
1062.1286 1633.54179
1062.2918 1625.14512
1062.4550 1640.03385
1062.6182 1628.66763
1062.7814 1639.64474
1062.9446 1626.06671
1063.1077 1621.11062
1063.2709 1603.72337
1063.4340 1620.88535
1063.5971 1611.09606
1063.7602 1620.53719
1063.9233 1599.07448
1064.0863 1617.11708
1064.2494 1605.30030
1064.4124 1599.05400
1064.5754 1602.20787
1064.7384 1615.25343
1064.9014 1589.89958
1065.0644 1597.41563
1065.2274 1581.99442
1065.3903 1585.70124
1065.5532 1580.15125
1065.7162 1600.26230
1065.8790 1583.69423
1066.0419 1580.84756
1066.2048 1580.92948
1066.3677 1580.92948
1066.5305 1572.02081
1066.6933 1569.95236
1066.8561 1566.88041
1067.0189 1559.69204
1067.1817 1543.90220
1067.3445 1553.19998
1067.5072 1541.48560
1067.6699 1552.31935
1067.8327 1553.19998
1067.9954 1557.54167
1068.1580 1542.42766
1068.3207 1538.14741
1068.4834 1532.24926
1068.6460 1538.61844
1068.8086 1529.09539
1068.9713 1535.85368
1069.1339 1522.07085
1069.2964 1531.88063
1069.4590 1523.70923
1069.6216 1528.37860
1069.7841 1522.27565
1069.9466 1525.34760
1070.1091 1517.21717
1070.2716 1513.53082
1070.4341 1519.01938
1070.5966 1519.92049
1070.7590 1499.13360
1070.9214 1513.48987
1071.0839 1502.69707
1071.2463 1500.56718
1071.4086 1499.74800
1071.5710 1489.99966
1071.7334 1490.47070
1071.8957 1500.95630
1072.0580 1486.66148
1072.2204 1479.10447
1072.3827 1480.08750
1072.5449 1477.44562
1072.7072 1465.40356
1072.8695 1472.48953
1073.0317 1469.70429
1073.1939 1468.43455
1073.3561 1468.98750
1073.5183 1466.81666
1073.6805 1457.84655
1073.8427 1466.16131
1074.0048 1455.14324
1074.1669 1465.91555
1074.3291 1450.37147
1074.4912 1457.10929
1074.6532 1450.84250
1074.8153 1452.15320
1074.9774 1442.52775
1075.1394 1452.03032
1075.3014 1440.45930
1075.4635 1442.11815
1075.6255 1436.97775
1075.7874 1442.13863
1075.9494 1424.52610
1076.1114 1436.60912
1076.2733 1426.57407
1076.4352 1433.94676
1076.5971 1419.40618
1076.7590 1428.06909
1076.9209 1412.11541
1077.0828 1424.50562
1077.2446 1409.82169
1077.4064 1413.50803
1077.5683 1394.60528
1077.7301 1403.84162
1077.8918 1393.04882
1078.0536 1400.81063
1078.2154 1399.54088
1078.3771 1397.14476
1078.5388 1390.36598
1078.7006 1401.36358
1078.8623 1387.88794
1079.0239 1393.15122
1079.1856 1375.10862
1079.3473 1392.31155
1079.5089 1384.69311
1079.6705 1374.26895
1079.8321 1379.69607
1079.9937 1384.11968
1080.1553 1364.56158
1080.3169 1380.02374
1080.4784 1366.46619
1080.6399 1373.40880
1080.8014 1355.30476
1080.9629 1367.44921
1081.1244 1365.89276
1081.2859 1359.91269
1081.4474 1349.22229
1081.6088 1359.11398
1081.7702 1353.95310
1081.9316 1351.76177
1082.0930 1343.36510
1082.2544 1345.82266
1082.4158 1337.36455
1082.5771 1344.20477
1082.7385 1333.43245
1082.8998 1343.77470
1083.0611 1335.15275
1083.2224 1335.80810
1083.3837 1331.44592
1083.5449 1334.21068
1083.7062 1325.67065
1083.8674 1320.57121
1084.0286 1310.20849
1084.1898 1322.88541
1084.3510 1314.03819
1084.5122 1319.87490
1084.6734 1303.53211
1084.8345 1321.39040
1084.9956 1306.15351
1085.1567 1318.48228
1085.3178 1301.93469
1085.4789 1301.83230
1085.6400 1300.03008
1085.8010 1299.51809
1085.9621 1302.18045
1086.1231 1295.36071
1086.2841 1279.14080
1086.4451 1301.09503
1086.6061 1289.33969
1086.7670 1291.57197
1086.9280 1283.35962
1087.0889 1292.30924
1087.2498 1292.43212
1087.4107 1289.40113
1087.5716 1280.06239
1087.7325 1269.96590
1087.8933 1267.91793
1088.0542 1294.76680
1088.2150 1272.28011
1088.3758 1277.23619
1088.5366 1274.12328
1088.6974 1277.50243
1088.8582 1264.41591
1089.0189 1276.45796
1089.1796 1260.05373
1089.3404 1270.86701
1089.5011 1266.87347
1089.6618 1281.37309
1089.8224 1261.46683
1089.9831 1272.85354
1090.1438 1258.33344
1090.3044 1273.07881
1090.4650 1263.43288
1090.6256 1270.92845
1090.7862 1255.97827
1090.9468 1275.51590
1091.1073 1267.16018
1091.2679 1260.05373
1091.4284 1258.04672
1091.5889 1268.08177
1091.7494 1259.13215
1091.9099 1258.70207
1092.0703 1258.29248
1092.2308 1272.36202
1092.3912 1258.25152
1092.5516 1270.55981
1092.7121 1253.52071
1092.8724 1268.40945
1093.0328 1247.80688
1093.1932 1253.68455
1093.3535 1254.72901
1093.5139 1265.31701
1093.6742 1263.06425
1093.8345 1257.90337
1093.9948 1248.07312
1094.1550 1264.33399
1094.3153 1257.71905
1094.4755 1260.42237
1094.6358 1258.29248
1094.7960 1260.38141
1094.9562 1257.24802
1095.1163 1255.79396
1095.2765 1246.74194
1095.4367 1249.58861
1095.5968 1251.53418
1095.7569 1261.89690
1095.9170 1251.00171
1096.0771 1260.40189
1096.2372 1249.11758
1096.3973 1258.51776
1096.5573 1246.29138
1096.7173 1258.53824
1096.8773 1260.72956
1097.0374 1261.77403
1097.1973 1254.19654
1097.3573 1258.90687
1097.5173 1249.09710
1097.6772 1257.51425
1097.8371 1238.69342
1097.9970 1252.35337
1098.1569 1253.50023
1098.3168 1255.36388
1098.4767 1244.36629
1098.6365 1259.66462
1098.7964 1249.73197
1098.9562 1260.89340
1099.1160 1245.41076
1099.2758 1256.92034
1099.4356 1245.79987
1099.5953 1262.16314
1099.7551 1250.20300
1099.9148 1266.13620
1100.0745 1248.46223
1100.2342 1248.54415
1100.3939 1251.88234
1100.5536 1252.45577
1100.7132 1249.09710
1100.8729 1255.91684
1101.0325 1250.61260
1101.1921 1254.31942
1101.3517 1255.07717
1101.5113 1255.38436
1101.6709 1244.12054
1101.8304 1250.85835
1101.9899 1246.59858
1102.1495 1255.87588
1102.3090 1240.29083
1102.4685 1256.92034
1102.6279 1245.59507
1102.7874 1251.49322
1102.9468 1247.41777
1103.1063 1252.53769
1103.2657 1252.21001
1103.4251 1251.80042
1103.5845 1254.74949
1103.7438 1255.20005
1103.9032 1252.59913
1104.0625 1245.65651
1104.2219 1247.70448
1104.3812 1252.04618
1104.5405 1243.79286
1104.6997 1254.95429
1104.8590 1249.62957
1105.0183 1256.01923
1105.1775 1234.90468
1105.3367 1252.39433
1105.4959 1249.54765
1105.6551 1258.80447
1105.8143 1241.47866
1105.9735 1256.85890
1106.1326 1241.88825
1106.2917 1259.56222
1106.4508 1247.35633
1106.6099 1255.03621
1106.7690 1242.78936
1106.9281 1248.42127
1107.0872 1244.01814
1107.2462 1252.66057
1107.4052 1254.85189
1107.5642 1249.71149
1107.7232 1245.20596
1107.8822 1259.78750
1108.0412 1246.84433
1108.2001 1258.14912
1108.3591 1246.00467
1108.5180 1253.33640
1108.6769 1246.51666
1108.8358 1261.13916
1108.9947 1239.84028
1109.1535 1256.14211
1109.3124 1247.35633
1109.4712 1250.65356
1109.6300 1243.75190
1109.7888 1257.92385
1109.9476 1248.91278
1110.1064 1258.14912
1110.2651 1254.05318
1110.4239 1256.55171
1110.5826 1236.35873
1110.7413 1255.50724
1110.9000 1248.03216
1111.0587 1259.07071
1111.2173 1247.00817
1111.3760 1255.07717
1111.5346 1255.89636
1111.6932 1254.97477
1111.8518 1242.93271
1112.0104 1252.68105
1112.1690 1248.87182
1112.3276 1252.88584
1112.4861 1241.29434
1112.6446 1255.69156
1112.8032 1254.76997
1112.9617 1253.74599
1113.1201 1248.91278
1113.2786 1256.92034
1113.4371 1242.27736
1113.5955 1252.72200
1113.7539 1240.96666
1113.9123 1250.44876
1114.0707 1245.45172
1114.2291 1254.21702
1114.3875 1243.71094
1114.5458 1248.38031
1114.7042 1243.30135
1114.8625 1248.78990
1115.0208 1245.43124
1115.1791 1253.58215
1115.3374 1244.07958
1115.4956 1251.65706
1115.6539 1243.81334
1115.8121 1248.93326
1115.9703 1253.23400
1116.1285 1249.65005
1116.2867 1242.70744
1116.4449 1249.73197
1116.6030 1243.97718
1116.7612 1246.14802
1116.9193 1247.58160
1117.0774 1256.10115
1117.2355 1243.62902
1117.3936 1250.73547
1117.5516 1244.03862
1117.7097 1252.00522
1117.8677 1249.52717
1118.0257 1251.28843
1118.1837 1249.17902
1118.3417 1260.05373
1118.4997 1248.46223
1118.6577 1244.85780
1118.8156 1254.99525
1118.9735 1250.48972
1119.1315 1241.56057
1119.2894 1253.45927
1119.4472 1249.71149
1119.6051 1249.91629
1119.7630 1244.24341
1119.9208 1263.57624
1120.0786 1246.96721
1120.2364 1258.51776
1120.3942 1248.81038
1120.5520 1246.92625
1120.7098 1250.38732
1120.8675 1256.24451
1121.0253 1251.69802
1121.1830 1253.09064
1121.3407 1249.83437
1121.4984 1255.95780
1121.6560 1252.25097
