# Averages = 100
# wavelength [µm]	intensity
446.8250 14.33578
447.0374 36746.70328
447.2498 1231.58697
447.4621 1227.49103
447.6745 1232.05800
447.8868 1242.54360
448.0992 1242.13401
448.3115 1230.84970
448.5238 1259.86942
448.7360 1240.18844
448.9483 1246.74194
449.1606 1243.64950
449.3728 1264.47735
449.5850 1236.82977
449.7972 1247.25393
450.0094 1241.39674
450.2216 1260.07421
450.4337 1247.72496
450.6459 1698.36000
450.8580 2031.50308
451.0701 2056.83645
451.2822 2082.74326
451.4943 2072.81061
451.7064 2051.77797
451.9184 2049.58665
452.1305 2113.99526
452.3425 2219.71141
452.5545 2154.85224
452.7665 2137.07587
452.9785 2255.98094
453.1905 2291.82039
453.4024 2222.39425
453.6143 2313.34454
453.8263 2298.00525
454.0382 2409.14852
454.2501 2268.30971
454.4619 2255.44846
454.6738 2395.38617
454.8856 2455.35069
455.0975 2310.27259
455.3093 2304.64067
455.5211 2393.85019
455.7329 2350.65853
455.9446 2399.01107
456.1564 2388.01348
456.3681 2453.58944
456.5798 2521.15193
456.7916 2467.74090
457.0033 2458.52505
457.2149 2415.98873
457.4266 2450.70180
457.6382 2500.67224
457.8499 2467.00364
458.0615 2587.32180
458.2731 2496.69918
458.4847 2599.67105
458.6963 2611.99982
458.9078 2630.06291
459.1194 2787.77698
459.3309 2811.18526
459.5424 2646.46714
459.7539 2548.45135
459.9654 2610.95536
460.1769 2675.65069
460.3883 2665.69756
460.5998 2517.36319
460.8112 2494.71265
461.0226 2583.77881
461.2340 2686.01341
461.4454 2625.94649
461.6567 2579.66240
461.8681 2570.03694
462.0794 2521.17241
462.2907 2634.56844
462.5020 2718.24844
462.7133 2814.31866
462.9246 2884.01103
463.1359 2716.36431
463.3471 2478.49274
463.5583 2546.03475
463.7696 2878.17432
463.9808 2745.62978
464.1919 2639.25829
464.4031 2634.48652
464.6143 2789.08768
464.8254 2628.09686
465.0365 2609.54226
465.2476 2716.46671
465.4587 2769.30430
465.6698 2598.54467
465.8809 2559.46942
466.0919 2596.96773
466.3030 2758.73678
466.5140 2726.84991
466.7250 2610.62768
466.9360 2675.95789
467.1469 2624.02140
467.3579 2522.19639
467.5688 2512.59142
467.7798 2613.78156
467.9907 2798.63122
468.2016 2607.16662
468.4125 2599.91681
468.6233 2497.80509
468.8342 2515.41762
469.0450 2784.45927
469.2559 2760.60044
469.4667 2751.52793
469.6775 2528.44270
469.8882 2570.28270
470.0990 2610.93488
470.3098 2769.18143
470.5205 2651.30034
470.7312 2778.88880
470.9419 2890.35974
471.1526 2718.92427
471.3633 2604.09466
471.5739 2651.27986
471.7846 2627.81014
471.9952 2463.37873
472.2058 2519.94363
472.4164 2503.17076
472.6270 2550.49932
472.8376 2600.69504
473.0481 2738.78957
473.2587 2788.55521
473.4692 2709.74937
473.6797 2666.59867
473.8902 2571.28620
474.1007 2496.86302
474.3111 2484.90288
474.5216 2434.42045
474.7320 2542.08217
474.9424 2688.32762
475.1528 2762.25929
475.3632 2573.39561
475.5736 2575.95557
475.7840 2523.46613
475.9943 2545.19508
476.2046 2590.86479
476.4149 2616.28008
476.6252 2706.00159
476.8355 2838.56661
477.0458 2849.13413
477.2561 2889.29479
477.4663 2758.36815
477.6765 2700.51303
477.8867 2658.81639
478.0969 2690.62134
478.3071 2680.62726
478.5173 2650.25588
478.7274 2718.26892
478.9375 2866.86953
479.1477 2875.88060
479.3578 2861.07378
479.5679 2950.20138
479.7779 2814.48249
479.9880 2754.29269
480.1980 2843.52269
480.4081 2913.97282
480.6181 2840.45074
480.8281 2737.23311
481.0381 2855.46235
481.2480 2901.41877
481.4580 2820.23729
481.6679 2822.67437
481.8778 2770.61500
482.0877 2841.92528
482.2976 2875.40956
482.5075 2925.25712
482.7174 2888.35273
482.9272 2897.93722
483.1371 2838.23893
483.3469 2859.21013
483.5567 2937.91357
483.7665 2973.99878
483.9762 2967.79343
484.1860 2934.00195
484.3957 2977.74656
484.6055 2929.66026
484.8152 2963.98421
485.0249 3014.09801
485.2346 2987.29010
485.4442 3007.42163
485.6539 3060.99649
485.8635 3069.76180
486.0732 2993.49544
486.2828 3028.06515
486.4924 3029.62161
486.7019 3014.05705
486.9115 3056.59336
487.1210 3100.19461
487.3306 3111.17173
487.5401 3154.89586
487.7496 3142.58757
487.9591 3230.09727
488.1686 3206.27940
488.3780 3176.87056
488.5875 3196.96114
488.7969 3200.56556
489.0063 3205.19397
489.2157 3260.96016
489.4251 3230.71166
489.6345 3264.52363
489.8438 3266.05960
490.0531 3246.11239
490.2625 3276.60664
490.4718 3257.02806
490.6811 3315.62045
490.8903 3345.37743
491.0996 3362.15030
491.3089 3360.45048
491.5181 3403.66262
491.7273 3416.31907
491.9365 3406.85745
492.1457 3458.65058
492.3549 3444.43768
492.5640 3450.11055
492.7732 3493.40461
492.9823 3489.73875
493.1914 3578.98923
493.4005 3558.42762
493.6096 3541.59332
493.8187 3541.28612
494.0277 3619.17038
494.2368 3611.69529
494.4458 3642.96777
494.6548 3682.06350
494.8638 3716.53081
495.0728 3653.06426
495.2817 3731.13283
495.4907 3700.49521
495.6996 3751.79683
495.9085 3761.36085
496.1174 3806.31376
496.3263 3794.04643
496.5352 3845.38900
496.7440 3851.69675
496.9529 3880.14303
497.1617 3916.31016
497.3705 3893.41387
497.5793 3961.26307
497.7881 3940.06660
497.9969 3991.79829
498.2056 4020.59273
498.4144 4052.47960
498.6231 4069.92830
498.8318 4095.42551
499.0405 4132.86238
499.2492 4064.97221
499.4578 4159.11734
499.6665 4154.98044
499.8751 4240.60601
500.0837 4261.04474
500.2923 4264.05525
500.5009 4267.70064
500.7095 4313.37034
500.9180 4333.39948
501.1266 4389.37046
501.3351 4394.69518
501.5436 4436.10511
501.7521 4425.33279
501.9606 4479.52205
502.1691 4490.00765
502.3775 4514.17368
502.5860 4565.39338
502.7944 4574.97787
503.0028 4646.20622
503.2112 4676.98719
503.4196 4669.86026
503.6279 4759.02882
503.8363 4704.22518
504.0446 4821.34851
504.2529 4839.30920
504.4612 4878.91691
504.6695 4892.26967
504.8778 4908.59198
505.0860 4955.30615
505.2943 4962.12588
505.5025 5050.20902
505.7107 5059.03576
505.9189 5124.22261
506.1271 5166.06261
506.3353 5178.04323
506.5434 5186.09175
506.7516 5250.43892
506.9597 5258.87655
507.1678 5302.90788
507.3759 5358.18256
507.5840 5359.80045
507.7920 5406.67846
508.0001 5399.32625
508.2081 5528.59404
508.4161 5505.94350
508.6241 5591.58956
508.8321 5567.11633
509.0401 5643.64892
509.2480 5677.52233
509.4560 5659.21349
509.6639 5754.19828
509.8718 5782.52168
510.0797 5829.29729
510.2876 5811.45948
510.4955 5991.49642
510.7033 6014.33127
510.9112 6078.47365
511.1190 6088.63157
511.3268 6078.53509
511.5346 6145.85182
511.7424 6192.97558
511.9501 6251.05598
512.1579 6302.76719
512.3656 6350.52582
512.5733 6333.26144
512.7810 6460.46078
512.9887 6519.50372
513.1964 6588.13115
513.4040 6586.45182
513.6117 6641.25546
513.8193 6692.72092
514.0269 6734.68380
514.2345 6812.54757
514.4421 6830.67209
514.6497 6874.04807
514.8572 6964.52733
515.0647 6975.38156
515.2723 7076.44882
515.4798 7120.15247
515.6873 7226.05294
515.8947 7193.32640
516.1022 7228.57194
516.3097 7284.97300
516.5171 7428.22841
516.7245 7424.93118
516.9319 7486.94368
517.1393 7535.52150
517.3467 7614.18397
517.5540 7663.97010
517.7614 7728.93166
517.9687 7701.46840
518.1760 7762.51835
518.3833 7848.24632
518.5906 7870.71254
518.7978 8025.31370
519.0051 7977.35027
519.2123 8165.27189
519.4196 8069.79558
519.6268 8212.53900
519.8340 8266.21627
520.0411 8357.94479
520.2483 8440.37553
520.4554 8455.26426
520.6626 8522.10996
520.8697 8596.04163
521.0768 8727.52123
521.2839 8754.18578
521.4909 8826.41764
521.6980 9022.77688
521.9050 9047.74162
522.1121 9126.26074
522.3191 9194.78578
522.5261 9231.42394
522.7331 9338.71702
522.9400 9484.69623
523.1470 9506.07703
523.3539 9562.94912
523.5608 9633.23541
523.7677 9683.79975
523.9746 9740.46705
524.1815 9844.13523
524.3884 9916.67428
524.5952 9888.78095
524.8020 10114.18039
525.0089 10044.36513
525.2157 10179.65395
525.4225 10225.77420
525.6292 10300.13595
525.8360 10366.96117
526.0427 10504.74851
526.2494 10577.65620
526.4562 10688.18507
526.6629 10660.10742
526.8695 10761.62523
527.0762 10914.50610
527.2829 10908.36219
527.4895 11160.77434
527.6961 11252.05230
527.9027 11333.00851
528.1093 11326.59837
528.3159 11385.43651
528.5224 11445.40103
528.7290 11717.22793
528.9355 11670.67760
529.1420 11916.86392
529.3485 11817.20976
529.5550 11999.13082
529.7615 12019.36476
529.9680 12199.23785
530.1744 12261.80330
530.3808 12389.67847
530.5872 12336.51320
530.7936 12472.84648
531.0000 12567.15544
531.2064 12651.08120
531.4127 12752.31229
531.6191 12863.25076
531.8254 12893.08966
532.0317 13051.88916
532.2380 13046.54396
532.4443 13266.92588
532.6505 13117.89519
532.8568 13370.36878
533.0630 13572.62618
533.2692 13527.55038
533.4754 13660.66835
533.6816 13884.87997
533.8878 13832.67725
534.0939 14063.01229
534.3001 14064.87594
534.5062 14166.25040
534.7123 14204.62933
534.9184 14236.61860
535.1245 14290.93073
535.3306 14408.46366
535.5366 14580.22680
535.7426 14715.29034
535.9487 14922.93389
536.1547 14767.51354
536.3607 14948.30822
536.5666 14951.83073
536.7726 15083.20793
536.9785 15236.41647
537.1845 15437.13788
537.3904 15348.64515
537.5963 15570.19441
537.8022 15627.25082
538.0080 15831.00323
538.2139 15871.94213
538.4197 16035.30860
538.6256 16035.82059
538.8314 16143.62566
539.0372 16194.33337
539.2430 16470.31764
539.4487 16153.33304
539.6545 16599.56495
539.8602 16516.97037
540.0659 16690.90435
540.2716 17001.51977
540.4773 16930.55766
540.6830 17269.27121
540.8887 17233.41128
541.0943 17165.68495
541.2999 17202.46647
541.5056 17309.80051
541.7112 17451.90906
541.9167 17424.73252
542.1223 17652.22088
542.3279 17697.68579
542.5334 17827.58845
542.7389 18064.74323
542.9444 18212.19698
543.1499 18266.69343
543.3554 18172.52783
543.5609 18445.82925
543.7663 18602.33503
543.9718 18439.11192
544.1772 18701.27240
544.3826 18700.84232
544.5880 19062.22689
544.7934 19079.47079
544.9987 19103.96449
545.2041 19459.90146
545.4094 19309.00712
545.6147 19487.28280
545.8200 19664.20682
546.0253 19760.82999
546.2306 19891.12176
546.4358 19807.09360
546.6411 20062.65962
546.8463 20042.52809
547.0515 20343.16990
547.2567 20359.22598
547.4619 20466.72386
547.6670 20637.46301
547.8722 20697.77569
548.0773 21056.90749
548.2824 20946.27622
548.4876 20950.98655
548.6926 21243.55936
548.8977 21411.94335
549.1028 21656.51178
549.3078 21625.17786
549.5129 21683.79073
549.7179 21744.12389
549.9229 21891.31140
550.1279 21825.03913
550.3328 21990.02349
550.5378 21834.58267
550.7427 22110.97653
550.9476 22161.47944
551.1526 21904.47984
551.3575 22316.79739
551.5623 22331.03077
551.7672 22285.15627
551.9720 22499.12805
552.1769 22452.88491
552.3817 22788.05548
552.5865 22539.39111
552.7913 22711.58432
552.9961 22657.29267
553.2008 22764.38096
553.4056 23122.46829
553.6103 23006.32799
553.8150 23336.15335
554.0197 23399.74278
554.2244 23270.45452
554.4291 23178.95127
554.6337 23459.56395
554.8384 23498.76207
555.0430 23487.04769
555.2476 23426.10014
555.4522 23352.14799
555.6568 23546.23399
555.8613 23667.67853
556.0659 23856.29646
556.2704 23649.69737
556.4750 23927.44289
556.6795 23951.01501
556.8839 23808.23063
557.0884 24037.31641
557.2929 24059.37304
557.4973 23973.15355
557.7018 23998.40501
557.9062 24002.43951
558.1106 24069.42856
558.3150 24000.59633
558.5193 24195.07145
558.7237 24242.60480
558.9280 24109.26156
559.1323 24055.99389
559.3367 24056.75164
559.5410 24178.21666
559.7452 23802.39392
559.9495 24276.13005
560.1537 24198.73731
560.3580 24143.54455
560.5622 24405.54120
560.7664 24508.63594
560.9706 24416.84598
561.1748 24628.09396
561.3789 24610.13327
561.5831 24622.31869
561.7872 24629.26130
561.9913 24705.28190
562.1954 24565.44660
562.3995 24747.85917
562.6036 24719.08521
562.8076 24487.62378
563.0117 24857.65078
563.2157 24786.97538
563.4197 24984.15381
563.6237 24902.27602
563.8277 24683.53247
564.0316 24544.20916
564.2356 24770.65306
564.4395 24885.25740
564.6434 24859.24819
564.8473 25107.87160
565.0512 25042.41852
565.2551 25059.86721
565.4590 25150.53079
565.6628 25201.48425
565.8666 25289.30115
566.0705 25243.11945
566.2743 25104.49245
566.4780 25139.06216
566.6818 25170.02745
566.8856 25397.74110
567.0893 25162.28613
567.2930 25214.44789
567.4967 25075.90281
567.7004 25251.90524
567.9041 25374.12802
568.1078 25271.91390
568.3114 25336.07676
568.5151 25407.22319
568.7187 24888.71846
568.9223 25339.84502
569.1259 25316.94873
569.3295 25639.46285
569.5330 25589.51289
569.7366 25464.89399
569.9401 25583.45090
570.1436 25575.68910
570.3471 25873.77095
570.5506 25804.79536
570.7541 25675.48662
570.9575 25790.27527
571.1609 25584.49537
571.3644 25870.43276
571.5678 25864.10454
571.7712 26035.84720
571.9746 25992.92177
572.1779 25804.81584
572.3813 25646.46690
572.5846 26022.88356
572.7879 25892.53035
572.9912 26232.55460
573.1945 26169.96867
573.3978 25989.41975
573.6010 26055.11858
573.8043 26331.88108
574.0075 25875.30693
574.2107 26003.91937
574.4139 25835.92449
574.6171 25987.41274
574.8203 25595.37008
575.0234 25843.13334
575.2266 25520.10723
575.4297 25618.18445
575.6328 25671.04253
575.8359 25701.61870
576.0390 25144.44832
576.2420 25307.20040
576.4451 24939.48761
576.6481 25226.79714
576.8512 25575.07471
577.0542 24987.84015
577.2571 25254.26040
577.4601 25183.93316
577.6631 24916.95995
577.8660 24909.38247
578.0689 24526.45327
578.2719 24610.99342
578.4748 24684.57694
578.6776 24444.06349
578.8805 24435.42106
579.0834 24173.99785
579.2862 24385.02055
579.4890 24462.33137
579.6918 24612.40652
579.8946 24125.13331
580.0974 24234.86348
580.3002 24031.13155
580.5029 23833.68688
580.7057 24078.07099
580.9084 23681.42040
581.1111 23983.27052
581.3138 23722.62554
581.5164 23583.09742
581.7191 23481.72297
581.9217 23380.30756
582.1244 23205.67726
582.3270 23099.57200
582.5296 23232.07558
582.7322 23359.45924
582.9347 23174.13855
583.1373 22944.27453
583.3398 22972.16787
583.5424 22836.51042
583.7449 22737.10201
583.9474 22648.69120
584.1498 22491.61200
584.3523 22680.14800
584.5548 22421.65339
584.7572 22428.82128
584.9596 22488.68340
585.1620 22704.45739
585.3644 22235.08343
585.5668 22164.30563
585.7691 22265.10666
585.9715 22090.04629
586.1738 22221.71020
586.3761 22039.95297
586.5784 22239.54801
586.7807 22154.27059
586.9830 22118.49257
587.1852 21943.37077
587.3875 21852.09280
587.5897 21979.02590
587.7919 21850.94594
587.9941 21654.93485
588.1963 21629.21236
588.3984 21546.22867
588.6006 21287.54973
588.8027 21617.90757
589.0048 21481.88149
589.2069 21429.59685
589.4090 21556.44803
589.6111 21634.51660
589.8131 21627.71734
590.0152 21692.90419
590.2172 21385.87271
590.4192 21635.41770
590.6212 21373.62586
590.8232 21186.70775
591.0252 21424.00589
591.2271 21420.09427
591.4291 21413.11070
591.6310 21245.97597
591.8329 21175.68968
592.0348 21251.30069
592.2367 21227.62617
592.4385 21392.38525
592.6404 21528.20654
592.8422 21547.62128
593.0440 21648.34039
593.2458 21745.92610
593.4476 21725.26209
593.6494 21745.14787
593.8512 21797.55539
594.0529 21780.20910
594.2546 21783.40393
594.4563 21710.82391
594.6580 21601.85150
594.8597 21606.29559
595.0614 21552.24969
595.2630 21759.77037
595.4647 21732.98294
595.6663 21584.19801
595.8679 21697.47116
596.0695 21918.01691
596.2711 21726.47040
596.4727 21781.66315
596.6742 21841.03377
596.8757 21942.10103
597.0773 21966.47185
597.2788 21764.52165
597.4802 21893.25697
597.6817 22002.31131
597.8832 21827.59909
598.0846 21891.84387
598.2860 21806.03398
598.4875 21600.04928
598.6889 21906.34349
598.8902 21884.26639
599.0916 21979.35358
599.2930 21812.48508
599.4943 21985.57940
599.6956 21955.12611
599.8969 21832.67805
600.0982 21727.45342
600.2995 21569.08400
600.5008 21935.32225
600.7020 21729.60379
600.9032 21852.25664
601.1045 21864.95404
601.3057 21714.96081
601.5068 21894.56767
601.7080 21977.85856
601.9092 21689.66840
602.1103 21968.54030
602.3115 21936.28479
602.5126 21854.36604
602.7137 21711.54070
602.9147 21788.87200
603.1158 21859.17877
603.3169 21895.67357
603.5179 21882.01362
603.7189 21720.98184
603.9199 21833.02621
604.1209 21649.18005
604.3219 21651.08467
604.5229 21755.49011
604.7238 21744.71780
604.9247 21695.68943
605.1257 21669.59830
605.3266 21720.46985
605.5275 21517.98718
605.7283 21582.25244
605.9292 21702.81636
606.1300 21245.32062
606.3309 21325.29380
606.5317 21484.25713
606.7325 21627.47159
606.9332 21580.04063
607.1340 21469.96231
607.3348 21362.73067
607.5355 21275.56912
607.7362 21466.66508
607.9369 21075.29825
608.1376 21222.93632
608.3383 21089.47020
608.5390 21181.01440
608.7396 21090.69898
608.9402 21280.60712
609.1409 21230.30901
609.3415 20951.74430
609.5421 20887.06944
609.7426 20900.54508
609.9432 20786.69850
610.1437 20508.13379
610.3443 20878.44750
610.5448 20676.59970
610.7453 20721.28637
610.9457 20566.41898
611.1462 20529.65794
611.3467 20433.40341
611.5471 20578.03096
611.7475 20318.34852
611.9479 20581.04147
612.1483 20206.22223
612.3487 20411.53110
612.5491 20050.96572
612.7494 20362.66657
612.9497 20004.37443
613.1501 20078.90002
613.3504 19980.65895
613.5506 20295.96422
613.7509 20012.58679
613.9512 19682.59758
614.1514 19624.64007
614.3516 19860.77086
614.5519 19705.71915
614.7521 19793.20837
614.9522 19549.37722
615.1524 19380.41979
615.3526 19466.20920
615.5527 19618.88528
615.7528 19261.57617
615.9529 19236.28375
616.1530 19279.29110
616.3531 19369.15597
616.5532 19330.36744
616.7532 18994.45960
616.9532 18918.07037
617.1533 18741.59690
617.3533 18802.87213
617.5532 18618.53446
617.7532 18620.62339
617.9532 18346.13414
618.1531 18656.64716
618.3530 18191.86065
618.5530 18250.94455
618.7528 18258.31724
618.9527 18204.63998
619.1526 17968.57062
619.3524 17853.49525
619.5523 17848.29341
619.7521 17778.13000
619.9519 17725.49721
620.1517 17622.54582
620.3515 17628.64876
620.5512 17622.60726
620.7510 17522.99406
620.9507 17217.47808
621.1504 17128.43240
621.3501 17177.52221
621.5498 17172.54564
621.7495 16992.85687
621.9492 16949.39897
622.1488 16610.05055
622.3484 16501.03717
622.5480 16359.23581
622.7476 16651.39904
622.9472 16335.66369
623.1468 16217.51638
623.3463 16599.15535
623.5459 16375.64004
623.7454 16142.35592
623.9449 16145.48932
624.1444 16110.51001
624.3439 16109.26075
624.5433 15829.42630
624.7428 15759.71344
624.9422 15610.98995
625.1416 15569.23187
625.3410 15442.85172
625.5404 15394.45822
625.7398 15157.30343
625.9391 15237.39949
626.1385 15012.55300
626.3378 14957.83128
626.5371 15099.40736
626.7364 14773.30929
626.9357 14787.76795
627.1350 14667.57267
627.3342 14522.10545
627.5335 14391.40408
627.7327 14419.46125
627.9319 14349.89175
628.1311 14532.40673
628.3303 14168.01165
628.5294 14149.76425
628.7286 14158.07900
628.9277 14154.43362
629.1268 13945.54080
629.3259 13990.94427
629.5250 13871.91633
629.7241 13797.12451
629.9231 13496.62605
630.1222 13655.91706
630.3212 13560.09261
630.5202 13359.59647
630.7192 13361.31676
630.9182 13180.39920
631.1171 13184.86377
631.3161 13037.61482
631.5150 12860.07641
631.7140 12939.49664
631.9129 12896.61217
632.1118 12905.86899
632.3106 12830.50374
632.5095 12750.51008
632.7083 12582.33089
632.9072 12559.45507
633.1060 12594.72110
633.3048 12352.38495
633.5036 12292.85050
633.7023 12268.86879
633.9011 12277.81841
634.0998 12366.24970
634.2986 12100.62816
634.4973 12101.54974
634.6960 12038.02175
634.8947 11957.22938
635.0933 11894.64346
635.2920 11912.58367
635.4906 11717.37128
635.6892 11736.99083
635.8878 11752.18675
636.0864 11770.72087
636.2850 11555.41792
636.4836 11531.43620
636.6821 11468.31780
636.8806 11477.82038
637.0792 11511.96002
637.2777 11431.31101
637.4761 11313.10225
637.6746 11213.24330
637.8731 11348.92123
638.0715 11152.99206
638.2699 11192.70217
638.4683 11149.81770
638.6667 11042.50414
638.8651 11042.85230
639.0635 11039.53459
639.2618 10995.60566
639.4602 10964.59941
639.6585 10874.40687
639.8568 10926.40479
640.0551 10793.51210
640.2534 10713.90756
640.4516 10755.56324
640.6499 10784.09145
640.8481 10856.56906
641.0463 10778.27521
641.2445 10836.06889
641.4427 10786.18037
641.6409 10751.91786
641.8390 10768.30161
642.0372 10813.19308
642.2353 10707.21070
642.4334 10648.06536
642.6315 10711.51143
642.8296 10655.43805
643.0277 10557.77042
643.2257 10664.57199
643.4237 10632.15264
643.6218 10552.54810
643.8198 10580.97390
644.0178 10588.96098
644.2157 10567.17060
644.4137 10556.07060
644.6116 10797.15749
644.8096 10803.85434
645.0075 10508.55773
645.2054 10662.76978
645.4033 10582.63276
645.6011 10547.48962
645.7990 10531.31066
645.9968 10623.73549
646.1947 10689.22953
646.3925 10730.47562
646.5903 10697.62620
646.7881 10742.39480
646.9858 10697.07325
647.1836 10690.19208
647.3813 10650.68676
647.5790 10683.04467
647.7767 10893.57585
647.9744 10740.89978
648.1721 10814.42186
648.3698 10920.56808
648.5674 10784.11193
648.7650 10909.46809
648.9627 10817.28902
649.1603 11087.98953
649.3578 11100.95317
649.5554 11101.07605
649.7530 11167.55311
649.9505 11043.01613
650.1480 11207.07891
650.3455 11202.12283
650.5430 11058.10966
650.7405 11151.39464
650.9380 11204.58039
651.1354 11289.73493
651.3329 11290.88179
651.5303 11459.69586
651.7277 11522.93713
651.9251 11526.15244
652.1225 11473.47869
652.3198 11455.55896
652.5172 11594.77987
652.7145 11700.88514
652.9118 11754.05040
653.1091 11758.22826
653.3064 11819.48301
653.5037 11882.80620
653.7009 11791.38487
653.8982 11994.74817
654.0954 12176.56684
654.2926 12201.69541
654.4898 12250.84666
654.6870 12286.56324
654.8841 12427.29965
655.0813 12329.83682
655.2784 12569.22389
655.4755 12598.53032
655.6726 12737.38260
655.8697 12613.84913
656.0668 12846.39598
656.2639 12787.27112
656.4609 12764.86634
656.6579 12890.36587
656.8550 12999.48164
657.0520 13036.09932
657.2490 12987.91062
657.4459 13209.39844
657.6429 13318.96477
657.8398 13337.13025
658.0367 13460.06981
658.2337 13476.88364
658.4305 13700.64470
658.6274 13759.70812
658.8243 13796.94019
659.0211 13824.19866
659.2180 13933.53971
659.4148 13999.89390
659.6116 14104.27886
659.8084 14247.63667
660.0052 14331.82867
660.2019 14337.68586
660.3987 14304.81596
660.5954 14500.97041
660.7921 14559.50136
660.9888 14551.43236
661.1855 14739.00582
661.3822 14803.92643
661.5788 14874.49943
661.7755 14934.99643
661.9721 14977.67610
662.1687 15101.14813
662.3653 15170.30804
662.5619 15261.29929
662.7584 15275.71699
662.9550 15445.84175
663.1515 15738.84464
663.3480 15706.54817
663.5445 15888.10060
663.7410 15771.55070
663.9375 15989.80273
664.1340 16039.36358
664.3304 16159.78414
664.5268 16169.43007
664.7233 16398.22914
664.9197 16498.78440
665.1160 16739.91225
665.3124 16601.85867
665.5088 16843.00699
665.7051 16949.99288
665.9014 16932.87186
666.0977 16960.19176
666.2940 17098.79829
666.4903 17306.50328
666.6866 17518.30421
666.8828 17308.89940
667.0791 17556.80602
667.2753 17894.51607
667.4715 18013.48257
667.6677 18219.93830
667.8639 18359.67121
668.0600 18100.72604
668.2562 18273.77940
668.4523 18403.23150
668.6484 18601.63872
668.8445 18386.90919
669.0406 18822.12303
669.2367 18832.48575
669.4327 19107.17980
669.6287 19119.28330
669.8248 19186.94819
670.0208 19378.04415
670.2168 19395.55428
670.4128 19600.16684
670.6087 19675.94168
670.8047 19880.92288
671.0006 20101.36623
671.1965 19727.38666
671.3924 19984.07906
671.5883 19953.64625
671.7842 20291.33581
671.9801 19999.17259
672.1759 20366.57819
672.3717 20320.90848
672.5675 20972.67454
672.7633 20858.07021
672.9591 21327.93568
673.1549 21452.16546
673.3506 21535.57923
673.5464 21419.25460
673.7421 21625.50554
673.9378 21679.30568
674.1335 21601.42142
674.3292 21882.13650
674.5249 21913.34754
674.7205 21674.04240
674.9161 21972.16521
675.1118 21917.64828
675.3074 22071.32785
675.5030 22140.93831
675.6985 22400.80507
675.8941 22501.29889
676.0896 22693.07069
676.2852 22713.22270
676.4807 22648.91648
676.6762 22880.80798
676.8717 23113.60059
677.0671 23262.91799
677.2626 23558.58324
677.4580 23576.46201
677.6534 23647.99755
677.8489 23597.92472
678.0442 23696.51393
678.2396 23588.70886
678.4350 23925.29252
678.6303 23915.81043
678.8257 24231.42289
679.0210 24310.00345
679.2163 24283.44130
679.4116 24426.55335
679.6069 24270.33430
679.8021 24086.03759
679.9974 24408.59267
680.1926 24580.47869
680.3878 24671.42898
680.5830 24879.89172
680.7782 24862.77070
680.9734 24858.71572
681.1685 25062.73437
681.3636 25064.53658
681.5588 25358.91161
681.7539 25389.30346
681.9490 25440.52316
682.1441 25493.25836
682.3391 25439.54014
682.5342 25932.91629
682.7292 26041.47911
682.9242 26276.89312
683.1192 26352.66796
683.3142 26538.37777
683.5092 26646.40812
683.7041 26908.15901
683.8991 26740.26653
684.0940 26704.79571
684.2889 26582.65485
684.4838 26920.87689
684.6787 26920.65162
684.8736 26707.72431
685.0684 27180.51837
685.2633 27195.03847
685.4581 27429.18274
685.6529 27733.87953
685.8477 27957.88635
686.0425 27834.35287
686.2372 27743.15683
686.4320 27697.32329
686.6267 27737.27916
686.8214 28029.87245
687.0161 27949.20296
687.2108 28249.08703
687.4055 28459.45438
687.6002 28523.74012
687.7948 28644.87747
687.9894 28762.24656
688.1841 28812.01220
688.3787 28901.26268
688.5732 28919.79679
688.7678 28955.28809
688.9624 28808.55113
689.1569 29163.42315
689.3514 28977.03752
689.5459 28831.30406
689.7404 29310.42635
689.9349 29163.30028
690.1294 29447.53786
690.3238 29555.07670
690.5182 29670.33638
690.7127 29720.24538
690.9071 29782.79034
691.1015 29724.46419
691.2958 30168.87341
691.4902 30075.77275
691.6845 30756.53805
691.8789 30389.29629
692.0732 30412.86841
692.2675 30369.04188
692.4618 30793.56532
692.6560 30622.41657
692.8503 31044.85109
693.0445 30952.13954
693.2387 30559.33913
693.4329 31114.58442
693.6271 31141.41281
693.8213 31220.09577
694.0155 31424.01202
694.2096 31342.91246
694.4038 31069.01712
694.5979 31241.27177
694.7920 31323.49771
694.9861 31190.29783
695.1801 31284.85254
695.3742 31250.69242
695.5682 31404.98639
695.7623 31602.10338
695.9563 31514.51176
696.1503 31871.43175
696.3443 31455.63266
696.5382 32104.22436
696.7322 31910.01548
696.9261 32241.52019
697.1201 31776.46744
697.3140 32056.42477
697.5079 32424.28092
697.7017 31969.73425
697.8956 31945.75254
698.0894 32146.41252
698.2833 32360.30237
698.4771 32548.06015
698.6709 32911.08309
698.8647 32670.34436
699.0585 33094.78589
699.2522 32600.28335
699.4460 32624.94090
699.6397 32839.95713
699.8334 32557.95184
700.0271 33002.60681
700.2208 33291.57520
700.4144 33491.47743
700.6081 33589.18602
700.8017 33172.38342
700.9954 33469.42081
701.1890 33258.60291
701.3826 33134.86463
701.5761 33161.20151
701.7697 33265.50456
701.9632 33035.68151
702.1568 33653.22600
702.3503 33604.83250
702.5438 33553.67424
702.7373 32906.06557
702.9308 33680.09535
703.1242 33751.13939
703.3177 33702.09054
703.5111 33801.94950
703.7045 33914.60826
703.8979 34254.65299
704.0913 34516.30148
704.2847 34562.68797
704.4780 34484.00501
704.6713 34025.28049
704.8647 34133.86379
705.0580 34033.34948
705.2513 33908.28003
705.4445 34082.78745
705.6378 34158.23462
705.8311 33694.69737
706.0243 33754.98957
706.2175 34264.85187
706.4107 34284.65573
706.6039 34698.83693
706.7971 34606.37114
706.9902 34672.97108
707.1834 34810.59458
707.3765 34473.45797
707.5696 34311.95515
707.7627 34525.55829
707.9558 34514.23303
708.1489 34284.73765
708.3419 34062.98359
708.5349 34308.94464
708.7280 34202.55266
708.9210 34854.97407
709.1140 34889.15467
709.3069 34593.48942
709.4999 34345.74664
709.6929 34764.33097
709.8858 34387.03369
710.0787 34692.28343
710.2716 34280.92843
710.4645 34688.45373
710.6574 34692.61110
710.8502 34939.61662
711.0431 34348.57283
711.2359 34507.06514
711.4287 34409.56134
711.6215 34667.54397
711.8143 34552.93964
712.0071 34498.05407
712.1998 34855.50654
712.3925 34685.13602
712.5853 35087.29564
712.7780 35047.31929
712.9707 34872.42276
713.1633 34929.29485
713.3560 35314.31298
713.5487 35066.71356
713.7413 35279.55895
713.9339 35358.61054
714.1265 35177.22195
714.3191 35210.27617
714.5117 34854.25728
714.7042 35375.44485
714.8968 35571.61977
715.0893 36134.99550
715.2818 35923.03073
715.4743 35947.21724
715.6668 35493.75600
715.8592 35563.65317
716.0517 35552.22551
716.2441 35754.36002
716.4366 35403.91161
716.6290 35661.56656
716.8214 35714.40415
717.0137 35798.24799
717.2061 35857.31141
717.3984 35819.60831
717.5908 35492.48626
717.7831 35467.21433
717.9754 35859.40034
718.1677 35065.71005
718.3600 35415.21640
718.5522 35370.28396
718.7445 35495.06670
718.9367 35280.56245
719.1289 35529.28826
719.3211 35226.55752
719.5133 35242.08112
719.7054 35275.95452
719.8976 35543.60356
720.0897 35401.22877
720.2818 35608.70849
720.4740 35718.54105
720.6660 35555.13362
720.8581 35609.97823
721.0502 35589.72382
721.2422 35625.56327
721.4343 35839.78080
721.6263 35996.02034
721.8183 36051.54077
722.0103 36077.09942
722.2022 35837.09796
722.3942 36191.82663
722.5861 35671.02818
722.7781 36137.61690
722.9700 36253.45001
723.1619 36060.01936
723.3538 35700.51893
723.5456 35575.08084
723.7375 35939.41448
723.9293 35899.25381
724.1211 35668.01766
724.3129 35456.25769
724.5047 35403.01050
724.6965 35740.39288
724.8883 35740.92535
725.0800 35993.56277
725.2718 35729.74344
725.4635 35868.37044
725.6552 35598.18193
725.8469 36006.81313
726.0385 36305.89849
726.2302 36000.56683
726.4218 35355.76387
726.6135 35557.03823
726.8051 35458.53094
726.9967 35519.90856
727.1882 35862.28798
727.3798 36334.05806
727.5714 36045.54022
727.7629 36189.81962
727.9544 36127.52041
728.1459 35831.01549
728.3374 35808.26256
728.5289 36229.52973
728.7204 35796.63010
728.9118 36258.46753
729.1032 36539.24405
729.2946 36626.22128
729.4860 35736.31742
729.6774 35952.21428
729.8688 36066.57286
730.0602 35922.12962
730.2515 35861.73502
730.4428 36104.54220
730.6341 35875.88649
730.8254 35716.24732
731.0167 36344.35934
731.2080 36002.63528
731.3992 36153.50913
731.5905 36248.14577
731.7817 36043.92232
731.9729 35717.33275
732.1641 36075.56344
732.3553 35787.04560
732.5464 36307.31159
732.7376 36280.27840
732.9287 36281.13855
733.1198 36148.55305
733.3109 36227.68656
733.5020 36178.33051
733.6931 36312.24719
733.8841 36065.20072
734.0752 36265.36919
734.2662 36071.16031
734.4572 36002.08232
734.6482 35622.20460
734.8392 35671.60161
735.0302 35596.72787
735.2211 35854.11658
735.4120 35717.14843
735.6030 36107.40936
735.7939 35948.69178
735.9848 35967.10302
736.1756 35838.47010
736.3665 35624.51880
736.5574 35436.12616
736.7482 35899.00806
736.9390 35676.78297
737.1298 35985.49378
737.3206 35913.18000
737.5114 36090.28834
737.7021 35887.51895
737.8929 35869.94738
738.0836 35728.53514
738.2743 35973.71796
738.4650 35835.70534
738.6557 35393.48745
738.8463 35472.21137
739.0370 35481.46819
739.2276 35249.61765
739.4182 35115.90577
739.6088 35538.07404
739.7994 35131.38841
739.9900 35310.93383
740.1806 35473.25583
740.3711 35652.82173
740.5617 35771.54248
740.7522 35552.77846
740.9427 35445.46490
741.1332 35445.42394
741.3236 35415.03208
741.5141 35567.70815
741.7045 35890.63186
741.8949 35903.26783
742.0854 35456.62633
742.2758 35963.56003
742.4661 35497.07371
742.6565 35317.30301
742.8469 35496.97131
743.0372 35448.78261
743.2275 34902.32310
743.4178 35169.31679
743.6081 35337.74174
743.7984 35099.17386
743.9886 35172.94170
744.1789 35148.46847
744.3691 35032.96303
744.5593 35100.32072
744.7495 34873.81538
744.9397 34911.64136
745.1299 34819.29845
745.3200 34524.30903
745.5102 34839.55286
745.7003 34908.44653
745.8904 34899.33307
746.0805 35137.38896
746.2706 35034.99052
746.4607 35364.59061
746.6507 35408.06899
746.8408 34947.54225
747.0308 35186.47877
747.2208 34803.26286
747.4108 34938.53119
747.6007 34632.64658
747.7907 35147.91552
747.9806 35101.13991
748.1706 35027.47447
748.3605 35106.62847
748.5504 34952.68266
748.7403 35206.69222
748.9302 34898.16573
749.1200 34921.63545
749.3098 35035.66635
749.4997 34747.06659
749.6895 34710.01884
749.8793 34653.67922
750.0691 35258.89494
750.2588 35121.96775
750.4486 34837.50489
750.6383 34815.42779
750.8280 34371.91968
751.0177 34297.14834
751.2074 34338.59923
751.3971 34232.96500
751.5868 34413.55488
751.7764 34044.22420
751.9660 33787.59323
752.1557 34083.42232
752.3453 34725.68580
752.5348 34590.17171
752.7244 34653.18771
752.9140 34649.56280
753.1035 34790.95456
753.2930 34609.87317
753.4825 34529.22416
753.6720 34288.30111
753.8615 34458.01628
754.0510 34358.56692
754.2404 34299.62638
754.4299 34585.93241
754.6193 34434.05505
754.8087 34281.62474
754.9981 34336.48982
755.1875 34030.25705
755.3768 33906.43686
755.5662 34147.64662
755.7555 34117.78724
755.9448 34598.75270
756.1341 34292.04890
756.3234 33801.02791
756.5127 34056.92160
756.7019 34183.75231
756.8912 34290.30812
757.0804 34216.74509
757.2696 34063.51606
757.4588 33871.04796
757.6480 33642.33081
757.8371 33581.50614
758.0263 33454.96215
758.2154 33117.57978
758.4045 32888.92407
758.5936 32795.35238
758.7827 33349.96279
758.9718 33604.58675
759.1609 33461.04462
759.3499 33227.39186
759.5389 32559.54925
759.7280 32778.41567
759.9170 33110.39141
760.1059 33234.96935
760.2949 33161.93878
760.4839 33181.43544
760.6728 33305.46043
760.8617 33146.06702
761.0506 32789.02415
761.2395 32765.14484
761.4284 32661.90673
761.6173 32609.54017
761.8061 32692.81058
761.9950 32734.22051
762.1838 32656.68441
762.3726 32876.37002
762.5614 32395.24072
762.7502 32920.17607
762.9389 32618.01876
763.1277 32440.25507
763.3164 32751.60776
763.5051 32744.86995
763.6938 32829.47153
763.8825 32675.95580
764.0712 33163.70003
764.2598 32837.76581
764.4484 33198.53598
764.6371 33188.05038
764.8257 32835.30825
765.0143 33092.59456
765.2029 32901.70339
765.3914 33241.21565
765.5800 33416.50130
765.7685 32981.41034
765.9570 32765.82067
766.1455 32536.40721
766.3340 32431.85840
766.5225 32488.79193
766.7110 32352.19242
766.8994 32289.68841
767.0878 32132.69113
767.2762 32305.19153
767.4646 32121.40682
767.6530 32246.29195
767.8414 32375.53926
768.0298 32158.65937
768.2181 32339.08542
768.4064 32277.01148
768.5947 32175.28888
768.7830 31853.75778
768.9713 31908.54095
769.1596 31643.32899
769.3478 31582.21761
769.5360 31682.52712
769.7243 31396.44636
769.9125 31178.09193
770.1007 31100.39200
770.2888 31102.93148
770.4770 30970.65318
770.6651 30974.74912
770.8533 30764.44320
771.0414 30705.01115
771.2295 30810.70682
771.4176 31141.24897
771.6056 31337.50582
771.7937 30988.30667
771.9817 30646.93076
772.1698 31076.88132
772.3578 30961.84691
772.5458 30800.77417
772.7337 30530.15558
772.9217 30692.37518
773.1096 30637.77634
773.2976 30903.66412
773.4855 31092.05677
773.6734 30751.19285
773.8613 30896.02520
774.0492 30613.95846
774.2370 30630.99756
774.4249 31047.84112
774.6127 31272.35993
774.8005 31125.11098
774.9883 30979.11129
775.1761 31041.06234
775.3639 30574.39170
775.5516 30756.23085
775.7394 30389.50109
775.9271 30265.53754
776.1148 30188.88207
776.3025 29522.39112
776.4902 29800.93535
776.6778 29729.62507
776.8655 30048.96484
777.0531 30462.10158
777.2407 30219.21248
777.4283 29825.28570
777.6159 30239.07778
777.8035 30030.96320
777.9911 29599.33330
778.1786 30071.26722
778.3661 29870.62772
778.5536 29910.31736
778.7411 30358.45388
778.9286 30524.60558
779.1161 30188.32912
779.3036 29603.20396
779.4910 29673.08066
779.6784 29663.53712
779.8658 29856.16906
780.0532 29569.51488
780.2406 29729.07212
780.4280 29147.16228
780.6153 29495.05073
780.8026 29597.14198
780.9900 29581.35214
781.1773 29268.77067
781.3646 29540.24940
781.5518 29296.45920
781.7391 29573.18074
781.9263 29163.93515
782.1136 29039.17289
782.3008 28807.24043
782.4880 28987.66648
782.6752 28982.95615
782.8623 28935.50471
783.0495 29123.97928
783.2366 28654.66676
783.4237 28806.52364
783.6108 29142.24716
783.7979 28868.24942
783.9850 28902.77817
784.1721 29208.62182
784.3591 28832.79908
784.5462 28829.07178
784.7332 28866.59056
784.9202 28856.96511
785.1072 28685.59109
785.2941 28746.47720
785.4811 28385.89134
785.6681 28532.52590
785.8550 28622.75940
786.0419 28528.04085
786.2288 28254.47318
786.4157 28051.04845
786.6025 28234.09590
786.7894 28297.00950
786.9762 28254.08407
787.1631 27831.93627
787.3499 28223.75365
787.5367 28296.23127
787.7234 27893.21150
787.9102 28014.00069
788.0970 28002.06104
788.2837 28208.61916
788.4704 27785.79554
788.6571 27641.74141
788.8438 27713.27696
789.0305 27609.69070
789.2171 27478.92790
789.4038 27281.60611
789.5904 27321.37766
789.7770 27382.87816
789.9636 27289.71607
790.1502 27612.23018
790.3368 27553.18725
790.5233 27415.66614
790.7099 27257.54248
790.8964 26877.35756
791.0829 26557.13716
791.2694 26541.83884
791.4559 26546.46725
791.6423 26538.05010
791.8288 26585.72681
792.0152 26895.68688
792.2016 26891.40662
792.3880 26979.48976
792.5744 26660.72342
792.7608 26275.56194
792.9471 26504.64772
793.1335 26849.34135
793.3198 26561.13070
793.5061 26658.30682
793.6924 26175.66203
793.8787 26209.57639
794.0650 26175.43675
794.2512 26337.75875
794.4375 26563.99786
794.6237 26704.75475
794.8099 26546.73348
794.9961 26075.63923
795.1823 26081.43498
795.3684 26196.91994
795.5546 25864.69845
795.7407 26020.42599
795.9268 25564.75295
796.1129 25714.52090
796.2990 26216.47804
796.4851 26578.96851
796.6712 26273.00198
796.8572 25872.68553
797.0432 25728.22181
797.2292 25961.89505
797.4152 25902.05340
797.6012 25389.07819
797.7872 25300.70834
797.9731 25483.55099
798.1591 25240.64141
798.3450 25204.76100
798.5309 25548.51255
798.7168 25563.13505
798.9027 25598.03244
799.0885 25430.61099
799.2744 25281.39599
799.4602 25567.39483
799.6460 25483.85818
799.8318 25850.97706
800.0176 25494.36426
800.2034 25534.01294
800.3892 25009.11855
800.5749 24928.32618
800.7606 24936.47709
800.9463 24991.97705
801.1320 24993.55398
801.3177 25035.53734
801.5034 25092.85999
801.6890 25249.73439
801.8747 24992.22280
802.0603 24589.77646
802.2459 24551.33609
802.4315 24553.52742
802.6171 24299.14922
802.8026 24663.29854
802.9882 24685.39612
803.1737 24325.42466
803.3592 24558.56542
803.5447 24738.43852
803.7302 24737.96748
803.9157 24706.89980
804.1012 24771.20602
804.2866 24273.83632
804.4720 24427.41350
804.6574 24276.76492
804.8428 24055.97341
805.0282 24027.65000
805.2136 24088.02412
805.3989 24294.93040
805.5843 23987.30502
805.7696 23916.30194
805.9549 23816.07435
806.1402 23796.65961
806.3255 23538.61554
806.5107 23661.49367
806.6960 23986.60871
806.8812 23647.19885
807.0664 23743.74009
807.2516 23334.12586
807.4368 23233.61156
807.6220 23285.42517
807.8072 23251.55176
807.9923 23280.18237
808.1774 23237.52318
808.3625 23591.63745
808.5476 23562.55630
808.7327 23575.21275
808.9178 23273.93606
809.1028 23312.27404
809.2879 23182.88337
809.4729 23164.18542
809.6579 22907.88213
809.8429 23233.32484
810.0279 23156.60793
810.2128 23152.75775
810.3978 23099.20337
810.5827 23147.35111
810.7676 23319.46241
810.9525 23404.76031
811.1374 23166.25387
811.3223 23059.45230
811.5072 22613.71190
811.6920 22594.62483
811.8768 22856.39619
812.0616 22524.78909
812.2464 22673.18491
812.4312 22585.96192
812.6160 22571.68758
812.8007 22765.99885
812.9855 22951.54482
813.1702 22637.42737
813.3549 22514.77453
813.5396 22339.07929
813.7243 22196.17203
813.9089 22422.06298
814.0936 22498.98469
814.2782 22498.51365
814.4628 22477.27622
814.6474 22497.51015
814.8320 22351.69478
815.0166 22128.65050
815.2012 22358.49403
815.3857 22105.40605
815.5702 22133.93426
815.7547 22163.24069
815.9392 22096.62027
816.1237 21841.27952
816.3082 21518.74493
816.4926 21744.92259
816.6771 21760.71243
816.8615 21505.47409
817.0459 21775.88788
817.2303 21754.46613
817.4147 21900.30198
817.5990 21893.76896
817.7834 21669.88502
817.9677 21621.12288
818.1520 21876.87322
818.3363 21620.71329
818.5206 21421.28209
818.7049 21554.58438
818.8891 21514.40323
819.0734 21496.03295
819.2576 21419.00885
819.4418 21200.14243
819.6260 21251.40308
819.8102 21327.75136
819.9944 21105.62867
820.1785 20980.64114
820.3627 21196.88616
820.5468 21192.70830
820.7309 20996.65625
820.9150 20811.84755
821.0991 20666.52369
821.2831 20885.22627
821.4672 20680.38844
821.6512 20566.86953
821.8352 20599.98518
822.0192 20958.05204
822.2032 20731.01423
822.3872 20882.89159
822.5711 20701.56443
822.7551 20720.40575
822.9390 20851.61910
823.1229 20876.74768
823.3068 20863.53828
823.4907 20497.42291
823.6745 20560.56179
823.8584 20517.71828
824.0422 20449.74620
824.2261 20452.47000
824.4099 20607.82890
824.5937 20764.21180
824.7774 20560.27507
824.9612 20566.37802
825.1449 20461.74729
825.3287 20412.47317
825.5124 20307.14613
825.6961 20539.11955
825.8798 20513.51994
826.0634 20579.93557
826.2471 20348.67894
826.4307 20461.93161
826.6144 20436.84399
826.7980 20558.94389
826.9816 20259.57182
827.1652 20408.02907
827.3487 20284.00409
827.5323 20038.32975
827.7158 19866.27990
827.8993 20181.35989
828.0828 20122.48079
828.2663 19820.24156
828.4498 19992.72149
828.6333 20300.06016
828.8167 20084.12234
829.0001 20083.85610
829.1836 20183.03923
829.3670 20212.38662
829.5504 20386.50492
829.7337 20022.88807
829.9171 19972.15988
830.1004 19931.46675
830.2837 19840.16830
830.4671 19710.40900
830.6504 19463.32157
830.8336 19611.47163
831.0169 19590.23419
831.2002 19809.20301
831.3834 19741.29237
831.5666 19693.47230
831.7498 19808.85486
831.9330 19998.68108
832.1162 19922.94720
832.2993 19716.32763
832.4825 19754.09217
832.6656 19639.71312
832.8487 19471.86160
833.0318 19487.30328
833.2149 19322.50324
833.3980 19485.78779
833.5811 19540.42759
833.7641 19484.80476
833.9471 19400.32605
834.1301 19157.88751
834.3131 18942.25688
834.4961 19133.49620
834.6791 19177.91664
834.8620 19531.35509
835.0450 19450.56272
835.2279 19570.94233
835.4108 19419.88415
835.5937 19566.70303
835.7766 19223.58635
835.9594 19294.99902
836.1423 19265.44683
836.3251 19656.54742
836.5079 19590.09083
836.6907 19207.03876
836.8735 19129.17499
837.0563 19213.40794
837.2390 19140.70505
837.4218 18916.92351
837.6045 19160.93898
837.7872 19361.94712
837.9699 19093.04882
838.1526 18895.97279
838.3352 18965.48085
838.5179 19065.62652
838.7005 19052.92911
838.8831 19117.84972
839.0658 19197.65906
839.2483 19388.73455
839.4309 19317.75195
839.6135 19314.61856
839.7960 18980.14430
839.9786 19080.28997
840.1611 18780.99982
840.3436 18953.86886
840.5261 18770.63710
840.7085 18621.11490
840.8910 18543.27161
841.0734 18668.07482
841.2559 18600.61473
841.4383 18763.20297
841.6207 19045.86362
841.8030 18745.81572
841.9854 18659.63719
842.1678 18571.94317
842.3501 18566.59797
842.5324 18486.64527
842.7147 18616.09738
842.8970 18877.39771
843.0793 18673.54290
843.2615 18670.51191
843.4438 18848.11176
843.6260 18828.94277
843.8082 18802.50349
843.9904 18789.64225
844.1726 18432.39458
844.3548 18281.39784
844.5369 18236.56781
844.7191 18335.89429
844.9012 18207.42521
845.0833 18297.94543
845.2654 18595.31049
845.4475 18704.13955
845.6296 18367.51493
845.8116 18260.52904
845.9936 18225.42686
846.1757 18104.55574
846.3577 18003.40657
846.5397 18017.80379
846.7216 17980.98131
846.9036 17940.02193
847.0855 17731.31344
847.2675 17907.31587
847.4494 18024.76688
847.6313 18140.14944
847.8132 18153.64555
847.9950 18065.58290
848.1769 18003.05841
848.3587 18129.82768
848.5406 17927.30405
848.7224 17941.55791
848.9042 17900.55757
849.0860 17986.49034
849.2677 17790.11062
849.4495 17632.99046
849.6312 17597.02813
849.8129 17839.32331
849.9946 18096.63010
850.1763 17929.39298
850.3580 17721.99518
850.5397 17619.43290
850.7213 17443.92198
850.9029 17456.41459
851.0845 17519.45107
851.2661 17523.60845
851.4477 17518.54996
851.6293 17539.43925
851.8109 17491.80349
851.9924 17533.60253
852.1739 17624.24563
852.3554 17529.52708
852.5369 17585.98958
852.7184 17276.29574
852.8999 17122.34993
853.0813 17166.99565
853.2628 17224.42069
853.4442 17323.05087
853.6256 17203.42901
853.8070 17256.81956
853.9883 17417.46223
854.1697 17344.06303
854.3510 17001.13066
854.5324 17049.05313
854.7137 17045.32582
854.8950 17054.70552
855.0763 17067.46437
855.2575 17077.88853
855.4388 17013.72567
855.6200 17070.65920
855.8013 17030.82621
855.9825 16843.84666
856.1637 16824.65719
856.3449 16852.46861
856.5260 16891.54385
856.7072 16784.45557
856.8883 16967.52349
857.0694 16854.08650
857.2505 16795.10500
857.4316 16739.72793
857.6127 16613.45017
857.7938 16714.92703
857.9748 16594.17879
858.1558 16521.04583
858.3368 16479.79973
858.5178 16394.74759
858.6988 16565.73250
858.8798 16482.07298
859.0607 16685.06764
859.2417 16657.66582
859.4226 16613.69593
859.6035 16625.77895
859.7844 16645.91048
859.9653 16570.25851
860.1462 16410.68079
860.3270 16468.84310
860.5078 16368.39023
860.6887 16423.86971
860.8695 16364.19190
861.0503 16271.84899
861.2310 15986.07543
861.4118 15970.96142
861.5925 16034.91948
861.7733 16038.58535
861.9540 15792.62430
862.1347 15651.25302
862.3154 15579.14404
862.4960 15798.64533
862.6767 15805.15787
862.8573 15825.88331
863.0380 15638.37129
863.2186 15696.14449
863.3992 15466.11664
863.5797 15507.07602
863.7603 15566.91766
863.9409 15602.30656
864.1214 15588.29846
864.3019 15562.92412
864.4824 15405.49677
864.6629 15343.89387
864.8434 15158.65509
865.0238 15237.60429
865.2043 15295.99188
865.3847 15081.52859
865.5651 15037.21055
865.7455 15132.58445
865.9259 15174.64973
866.1063 15016.66942
866.2866 15000.08087
866.4670 14930.16322
866.6473 14888.36418
866.8276 14912.77597
867.0079 14924.53131
867.1882 14741.19714
867.3684 14562.88050
867.5487 14627.30960
867.7289 14666.32341
867.9091 14710.90769
868.0893 14526.36522
868.2695 14267.89109
868.4497 14203.50295
868.6299 14284.82779
868.8100 14247.39092
868.9901 14215.38117
869.1703 14450.18078
869.3504 14442.89002
869.5304 14410.04060
869.7105 14538.34584
869.8906 14422.75848
870.0706 14217.34722
870.2506 14206.26771
870.4306 14212.61641
870.6106 14213.06696
870.7906 14398.49005
870.9706 14310.57075
871.1505 14193.44742
871.3305 14133.56482
871.5104 14059.12115
871.6903 13924.95872
871.8702 14009.96990
872.0500 14006.59075
872.2299 13992.72600
872.4097 13822.37596
872.5896 13841.97502
872.7694 13885.12573
872.9492 13858.54309
873.1290 13493.75890
873.3087 13531.03193
873.4885 13878.71558
873.6682 13810.68206
873.8480 13705.76462
874.0277 13643.21966
874.2074 13351.58891
874.3870 13416.38664
874.5667 13386.99829
874.7463 13571.29500
874.9260 13372.35531
875.1056 13350.13485
875.2852 13296.31423
875.4648 13338.58431
875.6444 13356.52451
875.8239 13467.97497
876.0035 13311.28488
876.1830 13210.87297
876.3625 13115.31475
876.5420 13121.41770
876.7215 13110.21531
876.9010 13020.16612
877.0804 13027.88697
877.2599 12879.94170
877.4393 13082.28102
877.6187 13110.33819
877.7981 13176.50806
877.9775 13067.84284
878.1568 13157.19571
878.3362 13037.36906
878.5155 13048.51001
878.6948 12780.67666
878.8741 12772.09567
879.0534 12710.34941
879.2327 12684.77028
879.4119 12740.80271
879.5912 12583.10911
879.7704 12757.80085
879.9496 12878.87676
880.1288 12867.34670
880.3080 12624.43712
880.4872 12695.74740
880.6663 12656.50831
880.8455 12644.63010
881.0246 12745.10344
881.2037 12678.50350
881.3828 12571.37425
881.5619 12569.77684
881.7409 12570.53459
881.9200 12529.24754
882.0990 12538.95491
882.2780 12430.51496
882.4570 12427.25869
882.6360 12494.00199
882.8150 12308.96802
882.9940 12270.28189
883.1729 12298.60530
883.3518 12489.18927
883.5308 12442.84373
883.7096 12439.40315
883.8885 12263.29831
884.0674 12139.23237
884.2463 12075.76582
884.4251 12123.70876
884.6039 12053.54535
884.7827 12117.38054
884.9615 12072.89866
885.1403 11995.23968
885.3191 11958.82680
885.4978 11840.80236
885.6765 11820.69131
885.8553 11927.37000
886.0340 12039.68061
886.2127 11964.11056
886.3913 11746.71868
886.5700 11640.51102
886.7486 11538.66553
886.9273 11589.86475
887.1059 11532.89026
887.2845 11427.17411
887.4630 11435.38647
887.6416 11515.11389
887.8202 11571.80167
887.9987 11550.85095
888.1772 11555.88895
888.3557 11513.00448
888.5342 11378.73965
888.7127 11528.38473
888.8912 11564.67473
889.0696 11580.44409
889.2481 11382.11880
889.4265 11223.60602
889.6049 11161.65496
889.7833 11131.22215
889.9616 11083.34064
890.1400 11041.35728
890.3183 10948.35902
890.4967 11057.06520
890.6750 11250.20913
890.8533 11119.07769
891.0316 10971.86970
891.2098 10847.61944
891.3881 10823.65820
891.5663 10775.36710
891.7445 10826.81207
891.9227 10809.01523
892.1009 10781.53148
892.2791 10853.78382
892.4573 10822.22462
892.6354 10731.95016
892.8136 10808.81043
892.9917 10778.91008
893.1698 10672.41571
893.3479 10776.04293
893.5259 10827.40598
893.7040 10652.98049
893.8820 10704.97841
894.0601 10609.33827
894.2381 10719.00700
894.4161 10768.73168
894.5941 10907.68636
894.7720 10828.98292
894.9500 10826.23864
895.1279 10868.54968
895.3058 10677.28988
895.4838 10639.13622
895.6616 10538.86767
895.8395 10481.52454
896.0174 10521.84905
896.1952 10586.99493
896.3731 10652.71425
896.5509 10594.22426
896.7287 10507.94334
896.9065 10491.17048
897.0842 10611.59104
897.2620 10503.74500
897.4397 10365.58903
897.6175 10408.33014
897.7952 10501.57416
897.9729 10568.76801
898.1506 10447.83546
898.3282 10352.74827
898.5059 10363.11099
898.6835 10365.71191
898.8611 10408.02294
899.0388 10194.54268
899.2163 10064.08707
899.3939 10039.88008
899.5715 10240.56054
899.7490 10230.13638
899.9266 10118.03057
900.1041 10165.11337
900.2816 10195.68954
900.4591 10144.94088
900.6365 10221.04340
900.8140 10106.88962
900.9914 10064.14851
901.1689 10084.42340
901.3463 10148.54530
901.5237 10155.95895
901.7011 10028.12474
901.8784 9991.46610
902.0558 9879.21693
902.2331 9951.44879
902.4104 9983.76574
902.5878 9986.48954
902.7650 9924.70232
902.9423 9862.87414
903.1196 9976.72073
903.2968 10016.88139
903.4741 9979.54692
903.6513 9879.52413
903.8285 9810.52806
904.0057 9906.78259
904.1828 9755.31482
904.3600 9638.82636
904.5371 9632.25238
904.7143 9662.00937
904.8914 9681.56747
905.0685 9777.78104
905.2456 9724.92297
905.4226 9720.86799
905.5997 9806.06349
905.7767 9857.50846
905.9537 9751.79232
906.1307 9691.00860
906.3077 9649.10716
906.4847 9639.05164
906.6617 9577.65353
906.8386 9704.36136
907.0156 9590.14614
907.1925 9526.86391
907.3694 9500.85471
907.5463 9513.79787
907.7231 9497.59844
907.9000 9510.84879
908.0768 9508.92370
908.2537 9390.01864
908.4305 9329.95171
908.6073 9397.71900
908.7841 9442.89719
908.9608 9344.90189
909.1376 9326.69544
909.3143 9357.53785
909.4910 9342.81296
909.6677 9377.99706
909.8444 9358.70520
910.0211 9320.79729
910.1978 9285.01928
910.3744 9339.74100
910.5510 9386.84429
910.7277 9405.03025
910.9043 9240.57836
911.0808 9192.22582
911.2574 9204.55459
911.4340 9178.58634
911.6105 9058.59585
911.7870 9079.50562
911.9636 9152.86386
912.1401 9062.81467
912.3165 9085.87480
912.4930 9034.83942
912.6695 8942.33267
912.8459 8969.01770
913.0223 8956.05406
913.1987 8925.19117
913.3751 8914.02974
913.5515 8899.83732
913.7279 8956.60701
913.9042 8915.05372
914.0805 8792.72855
914.2568 8792.35992
914.4331 8785.43778
914.6094 8798.36047
914.7857 8829.53055
914.9620 8858.55027
915.1382 8747.61180
915.3144 8719.65703
915.4906 8816.64883
915.6668 8849.76448
915.8430 8753.03892
916.0192 8584.47061
916.1953 8612.40490
916.3715 8655.30985
916.5476 8614.84199
916.7237 8697.72328
916.8998 8642.57148
917.0759 8487.23305
917.2519 8482.05169
917.4280 8593.31783
917.6040 8508.08137
917.7800 8517.58395
917.9560 8477.89432
918.1320 8501.20020
918.3080 8513.89761
918.4839 8460.40466
918.6599 8463.94765
918.8358 8457.63990
919.0117 8433.06428
919.1876 8402.75434
919.3635 8399.29327
919.5394 8476.89081
919.7152 8468.71942
919.8911 8420.87887
920.0669 8392.43258
920.2427 8208.77074
920.4185 8183.10969
920.5942 8214.21834
920.7700 8164.75989
920.9458 8248.72661
921.1215 8264.86461
921.2972 8252.02384
921.4729 8215.67240
921.6486 8060.08821
921.8243 7921.29737
921.9999 7957.36210
922.1756 7958.44752
922.3512 8020.64433
922.5268 7944.99237
922.7024 8057.42585
922.8780 8089.14889
923.0535 8059.26902
923.2291 7957.64881
923.4046 8046.57162
923.5801 8159.00510
923.7557 8074.95646
923.9311 8035.71738
924.1066 7967.23331
924.2821 8024.96555
924.4575 8041.10354
924.6330 7996.45782
924.8084 7899.56842
924.9838 7812.85742
925.1592 7865.96125
925.3345 7819.10373
925.5099 7760.79806
925.6852 7713.28518
925.8606 7789.85873
926.0359 7675.90975
926.2112 7668.68042
926.3864 7608.53158
926.5617 7501.48425
926.7370 7483.99460
926.9122 7475.59793
927.0874 7491.71544
927.2626 7470.90808
927.4378 7454.38097
927.6130 7468.20476
927.7882 7436.91180
927.9633 7358.51556
928.1384 7318.74400
928.3135 7268.56877
928.4886 7201.74355
928.6637 7271.72264
928.8388 7278.64478
929.0139 7270.22762
929.1889 7262.79350
929.3639 7253.86435
929.5389 7255.58465
929.7139 7248.96971
929.8889 7259.86490
930.0639 7241.92470
930.2388 7158.98196
930.4138 7130.28992
930.5887 7107.88514
930.7636 7102.21227
930.9385 7090.33405
931.1134 7019.22857
931.2882 7038.09037
931.4631 6948.63509
931.6379 6897.33347
931.8127 6848.30510
931.9875 6849.45196
932.1623 6861.78074
932.3371 6863.74679
932.5118 6801.73429
932.6866 6784.83855
932.8613 6819.40826
933.0360 6797.63835
933.2107 6787.52139
933.3854 6727.88454
933.5600 6742.42512
933.7347 6628.57853
933.9093 6652.90840
934.0839 6692.41372
934.2586 6723.31757
934.4331 6658.39696
934.6077 6609.12283
934.7823 6560.17638
934.9568 6629.97115
935.1314 6566.36124
935.3059 6566.64796
935.4804 6477.19268
935.6549 6489.50098
935.8293 6483.27515
936.0038 6435.61892
936.1782 6467.34195
936.3526 6485.28216
936.5271 6415.26211
936.7015 6363.05939
936.8758 6352.12323
937.0502 6320.17492
937.2246 6317.90168
937.3989 6414.21765
937.5732 6327.69097
937.7475 6301.53840
937.9218 6241.43052
938.0961 6244.95303
938.2703 6229.81854
938.4446 6173.39700
938.6188 6197.72687
938.7930 6191.95160
938.9672 6164.42690
939.1414 6230.02334
939.3156 6137.76234
939.4897 6096.55721
939.6639 6049.14674
939.8380 6029.17904
940.0121 6022.95322
940.1862 6023.67000
940.3603 6053.48843
940.5344 6068.02901
940.7084 6084.98619
940.8824 6050.60079
941.0565 6013.90119
941.2305 5961.57559
941.4045 5873.71773
941.5784 5834.90872
941.7524 5866.46792
941.9263 5933.25218
942.1003 5911.50276
942.2742 5895.61052
942.4481 5830.36223
942.6220 5850.39137
942.7958 5836.05559
942.9697 5830.44415
943.1435 5779.57261
943.3174 5783.19751
943.4912 5723.29443
943.6650 5709.96215
943.8387 5643.54652
944.0125 5644.09948
944.1863 5701.01253
944.3600 5701.79076
944.5337 5715.12303
944.7074 5752.53942
944.8811 5692.12434
945.0548 5667.42584
945.2284 5585.54805
945.4021 5595.00967
945.5757 5626.01591
945.7493 5588.43569
945.9229 5419.37587
946.0965 5374.13624
946.2701 5364.79750
946.4436 5416.57015
946.6172 5418.08565
946.7907 5400.30928
946.9642 5414.66554
947.1377 5405.12200
947.3112 5379.19472
947.4847 5378.78512
947.6581 5417.28694
947.8315 5407.66148
948.0050 5331.16985
948.1784 5274.95311
948.3518 5308.13020
948.5251 5332.54199
948.6985 5399.71537
948.8718 5337.00656
949.0452 5219.04356
949.2185 5205.60889
949.3918 5201.71775
949.5651 5231.06514
949.7383 5192.44045
949.9116 5185.62071
950.0848 5224.81883
950.2581 5256.39851
950.4313 5271.43060
950.6045 5311.95990
950.7776 5306.79902
950.9508 5193.46443
951.1239 5171.28493
951.2971 5067.73963
951.4702 5082.15733
951.6433 5089.09995
951.8164 5052.54370
951.9895 5059.52728
952.1625 5016.82713
952.3356 5033.82527
952.5086 4998.10869
952.6816 5011.64577
952.8546 4987.23398
953.0276 4937.09970
953.2006 4956.14581
953.3735 4948.87552
953.5465 4968.61794
953.7194 4977.56757
953.8923 4941.74859
954.0652 4935.74805
954.2381 4895.42354
954.4109 4885.92097
954.5838 4859.17449
954.7566 4850.06103
954.9294 4814.36494
955.1022 4803.53118
955.2750 4820.05829
955.4478 4800.62307
955.6206 4839.57543
955.7933 4843.20034
955.9660 4808.13911
956.1388 4840.49702
956.3115 4827.32858
956.4841 4744.61112
956.6568 4707.85008
956.8295 4735.92773
957.0021 4707.99344
957.1747 4702.60728
957.3473 4668.81580
957.5199 4644.83408
957.6925 4641.80309
957.8651 4659.27226
958.0376 4636.39645
958.2102 4599.65589
958.3827 4663.88019
958.5552 4691.26154
958.7277 4649.81065
958.9001 4618.43577
959.0726 4551.91774
959.2450 4519.00688
959.4175 4533.21979
959.5899 4479.25581
959.7623 4455.23314
959.9347 4432.11157
960.1070 4409.85015
960.2794 4426.15198
960.4517 4402.90754
960.6241 4440.61064
960.7964 4436.41230
960.9687 4451.26008
961.1409 4454.39347
961.3132 4426.97117
961.4855 4394.75662
961.6577 4372.08561
961.8299 4345.01146
962.0021 4330.22512
962.1743 4296.78180
962.3465 4263.19511
962.5186 4252.09512
962.6908 4266.10322
962.8629 4238.92668
963.0350 4196.32893
963.2071 4216.78814
963.3792 4241.34328
963.5513 4247.07759
963.7233 4294.79527
963.8954 4263.78902
964.0674 4263.46134
964.2394 4227.56045
964.4114 4209.84552
964.5834 4192.06915
964.7553 4188.25993
964.9273 4175.41917
965.0992 4177.40570
965.2711 4196.67708
965.4430 4181.33780
965.6149 4158.54390
965.7868 4146.97288
965.9587 4141.23857
966.1305 4159.38357
966.3023 4137.81846
966.4741 4127.06662
966.6459 4114.20538
966.8177 4127.82437
966.9895 4117.25685
967.1613 4128.56164
967.3330 4114.43066
967.5047 4083.97736
967.6764 4066.28291
967.8481 4056.10451
968.0198 4038.69677
968.1915 3989.23833
968.3631 3962.38946
968.5347 3980.82118
968.7064 3994.39921
968.8780 3971.15476
969.0496 3963.84352
969.2211 3931.91568
969.3927 3957.47433
969.5642 3909.06035
969.7358 3895.70760
969.9073 3865.64341
970.0788 3904.41146
970.2503 3912.50094
970.4217 3912.50094
970.5932 3891.85741
970.7646 3877.76739
970.9360 3910.73969
971.1074 3928.41366
971.2788 3957.47433
971.4502 3902.54781
971.6216 3841.84602
971.7929 3812.86726
971.9643 3838.95838
972.1356 3859.08991
972.3069 3841.00635
972.4782 3812.76486
972.6494 3789.78665
972.8207 3779.07577
972.9919 3772.11268
973.1632 3737.82968
973.3344 3746.39019
973.5056 3703.89484
973.6768 3698.24245
973.8479 3714.35996
974.0191 3752.26786
974.1902 3753.55808
974.3614 3733.13984
974.5325 3732.42305
974.7036 3706.22953
974.8746 3691.75039
975.0457 3702.39983
975.2167 3679.83121
975.3878 3633.71095
975.5588 3606.61633
975.7298 3611.98200
975.9008 3583.90435
976.0718 3586.77151
976.2427 3582.65509
976.4137 3587.16062
976.5846 3569.56857
976.7555 3566.39422
976.9264 3568.23739
977.0973 3563.13795
977.2682 3581.34439
977.4390 3587.59070
977.6098 3621.97609
977.7807 3581.18055
977.9515 3591.33848
978.1223 3595.08626
978.2930 3568.05308
978.4638 3532.45938
978.6346 3486.60536
978.8053 3478.76164
978.9760 3454.41129
979.1467 3429.65135
979.3174 3428.50448
979.4881 3433.74728
979.6587 3450.64303
979.8294 3444.33528
980.0000 3410.09325
980.1706 3397.86687
980.3412 3395.59363
980.5118 3422.91353
980.6824 3424.49047
980.8529 3422.93401
981.0235 3413.65671
981.1940 3394.40580
981.3645 3367.59789
981.5350 3387.87278
981.7055 3365.20177
981.8759 3349.86248
982.0464 3343.73906
982.2168 3342.05972
982.3872 3359.56986
982.5576 3324.95918
982.7280 3323.52561
982.8984 3327.37579
983.0687 3339.72504
983.2391 3340.95382
983.4094 3334.09313
983.5797 3308.43208
983.7500 3288.11623
983.9203 3265.03562
984.0906 3265.46569
984.2608 3254.85721
984.4311 3271.87583
984.6013 3227.27107
984.7715 3272.40831
984.9417 3271.48672
985.1119 3253.03452
985.2820 3202.57257
985.4522 3193.68439
985.6223 3217.35891
985.7924 3212.81242
985.9625 3239.74320
986.1326 3252.09246
986.3027 3220.30798
986.4727 3228.19266
986.6428 3205.43973
986.8128 3194.21686
986.9828 3164.60323
987.1528 3163.23109
987.3228 3163.14917
987.4928 3161.18312
987.6627 3173.73717
987.8327 3137.79532
988.0026 3151.88535
988.1725 3169.78459
988.3424 3140.80583
988.5123 3139.29034
988.6821 3138.98314
988.8520 3123.84865
989.0218 3082.23393
989.1916 3080.02212
989.3614 3043.24060
989.5312 3064.47804
989.7010 3050.01938
989.8707 3066.07545
990.0405 3062.43007
990.2102 3070.37619
990.3799 3056.88008
990.5496 3032.32493
990.7193 3017.16996
990.8890 3007.05300
991.0586 3006.06997
991.2283 3010.43214
991.3979 3020.20095
991.5675 3031.01423
991.7371 3027.81940
991.9067 3009.18288
992.0762 2979.30302
992.2458 2990.85356
992.4153 2992.08234
992.5848 3012.21388
992.7543 3000.19230
992.9238 2972.66760
993.0933 2966.09362
993.2627 2964.22997
993.4322 2952.82278
993.6016 2961.01466
993.7710 2930.60232
993.9404 2931.66727
994.1098 2918.78554
994.2792 2927.30509
994.4485 2923.12724
994.6179 2925.83055
994.7872 2929.23018
994.9565 2934.86210
995.1258 2950.42666
995.2951 2925.56432
995.4643 2931.50343
995.6336 2948.37869
995.8028 2931.19623
995.9720 2890.76933
996.1412 2895.76637
996.3104 2913.35842
996.4796 2914.89440
996.6487 2909.87688
996.8179 2899.75991
996.9870 2894.06656
997.1561 2867.15625
997.3252 2873.34112
997.4943 2852.51327
997.6634 2849.21604
997.8324 2858.82102
998.0014 2859.49685
998.1705 2848.29446
998.3395 2810.91903
998.5085 2790.70558
998.6774 2797.64819
998.8464 2776.57459
999.0153 2791.42237
999.1843 2800.20815
999.3532 2796.91092
999.5221 2769.26334
999.6910 2771.55707
999.8599 2802.87051
1000.0287 2821.32271
1000.1976 2809.38305
1000.3664 2819.78673
1000.5352 2812.78268
1000.7040 2814.01146
1000.8728 2802.09228
1001.0415 2771.29083
1001.2103 2745.52739
1001.3790 2747.49344
1001.5478 2723.94180
1001.7165 2723.59364
1001.8851 2719.02667
1002.0538 2720.66505
1002.2225 2730.31098
1002.3911 2722.75397
1002.5598 2708.17244
1002.7284 2696.76525
1002.8970 2682.65475
1003.0656 2693.46802
1003.2341 2664.22303
1003.4027 2662.62561
1003.5712 2620.62177
1003.7398 2642.39168
1003.9083 2650.11252
1004.0768 2622.09631
1004.2453 2613.02381
1004.4137 2650.23540
1004.5822 2635.75626
1004.7506 2657.97672
1004.9190 2617.24262
1005.0874 2622.60830
1005.2558 2631.39409
1005.4242 2630.75922
1005.5926 2620.45793
1005.7609 2610.40241
1005.9292 2609.58322
1006.0976 2626.88856
1006.2659 2616.77159
1006.4342 2646.20090
1006.6024 2611.22160
1006.7707 2615.54281
1006.9389 2604.54522
1007.1071 2625.31162
1007.2754 2618.30757
1007.4436 2604.91385
1007.6117 2599.13858
1007.7799 2583.92217
1007.9481 2588.85778
1008.1162 2593.38379
1008.2843 2577.47107
1008.4524 2582.63195
1008.6205 2565.34710
1008.7886 2570.13934
1008.9566 2568.89008
1009.1247 2551.64618
1009.2927 2546.09619
1009.4607 2535.32387
1009.6287 2523.26134
1009.7967 2534.62756
1009.9647 2511.58792
1010.1327 2494.20066
1010.3006 2472.59459
1010.4685 2473.06562
1010.6364 2484.63665
1010.8043 2486.37742
1010.9722 2459.13944
1011.1401 2453.30272
1011.3079 2451.86915
1011.4758 2462.37523
1011.6436 2459.24183
1011.8114 2467.18795
1011.9792 2470.50566
1012.1470 2482.95731
1012.3147 2482.93683
1012.4825 2484.65713
1012.6502 2474.92927
1012.8179 2476.64957
1012.9856 2444.29166
1013.1533 2448.30568
1013.3210 2420.76050
1013.4886 2425.08172
1013.6563 2408.47269
1013.8239 2416.45977
1013.9915 2416.64408
1014.1591 2410.58210
1014.3267 2419.26548
1014.4942 2423.46382
1014.6618 2414.59612
1014.8293 2427.47784
1014.9969 2417.95478
1015.1644 2434.83005
1015.3319 2439.64277
1015.4993 2417.60663
1015.6668 2394.58746
1015.8342 2382.68876
1016.0017 2381.13231
1016.1691 2386.64134
1016.3365 2382.97548
1016.5039 2382.54540
1016.6712 2390.67584
1016.8386 2383.01644
1017.0059 2376.87253
1017.1733 2382.56588
1017.3406 2378.03987
1017.5079 2379.86257
1017.6752 2353.79192
1017.8424 2357.39635
1018.0097 2337.06002
1018.1769 2350.45373
1018.3441 2330.93659
1018.5113 2335.33972
1018.6785 2323.25671
1018.8457 2327.08641
1019.0129 2325.03844
1019.1800 2339.84526
1019.3471 2349.98270
1019.5142 2336.58899
1019.6813 2329.31870
1019.8484 2336.99858
1020.0155 2324.60837
1020.1826 2319.93900
1020.3496 2302.20359
1020.5166 2289.77242
1020.6836 2280.90472
1020.8506 2289.97722
1021.0176 2263.78370
1021.1846 2297.24751
1021.3515 2274.45361
1021.5185 2296.87887
1021.6854 2268.90362
1021.8523 2279.34826
1022.0192 2296.46928
1022.1861 2289.23995
1022.3529 2258.58186
1022.5198 2281.96966
1022.6866 2272.11893
1022.8534 2286.31135
1023.0202 2255.71470
1023.1870 2252.11028
1023.3538 2251.90548
1023.5205 2260.44551
1023.6873 2239.94534
1023.8540 2249.98039
1024.0207 2237.93833
1024.1874 2236.48427
1024.3541 2238.32745
1024.5207 2236.13612
1024.6874 2218.33927
1024.8540 2232.20402
1025.0206 2213.97710
1025.1872 2220.46916
1025.3538 2216.10698
1025.5204 2214.14093
1025.6870 2211.04850
1025.8535 2214.77580
1026.0201 2197.88006
1026.1866 2213.48558
1026.3531 2196.20073
1026.5196 2198.08486
1026.6860 2217.49960
1026.8525 2206.68633
1027.0189 2182.49982
1027.1853 2191.65424
1027.3518 2182.47934
1027.5181 2191.40848
1027.6845 2194.43947
1027.8509 2179.53026
1028.0172 2171.39983
1028.1836 2156.08102
1028.3499 2150.55150
1028.5162 2154.58600
1028.6825 2145.02199
1028.8488 2139.04192
1029.0150 2152.14892
1029.1813 2144.98103
1029.3475 2122.57625
1029.5137 2139.45151
1029.6799 2141.43804
1029.8461 2125.11573
1030.0123 2122.33050
1030.1784 2136.91203
1030.3446 2125.34101
1030.5107 2139.88159
1030.6768 2127.81905
1030.8429 2120.11869
1031.0090 2115.75652
1031.1750 2132.01739
1031.3411 2118.07072
1031.5071 2118.25504
1031.6732 2104.61557
1031.8392 2114.09766
1032.0051 2107.01169
1032.1711 2111.00523
1032.3371 2094.06853
1032.5030 2085.89713
1032.6690 2089.44012
1032.8349 2093.78181
1033.0008 2079.81466
1033.1667 2074.77666
1033.3325 2062.85748
1033.4984 2066.97390
1033.6642 2075.82113
1033.8300 2093.00358
1033.9959 2075.24769
1034.1616 2084.70931
1034.3274 2064.59826
1034.4932 2081.67832
1034.6589 2052.72004
1034.8247 2052.18757
1034.9904 2046.53517
1035.1561 2063.38995
1035.3218 2057.61468
1035.4875 2059.06874
1035.6531 2042.23444
1035.8188 2046.69901
1035.9844 2032.93666
1036.1500 2035.08703
1036.3156 2024.45807
1036.4812 2029.55751
1036.6468 2029.88519
1036.8123 2019.60438
1036.9779 2017.55641
1037.1434 2041.06710
1037.3089 2028.00105
1037.4744 2025.60493
1037.6399 2030.97061
1037.8053 2025.48205
1037.9708 2028.73832
1038.1362 2028.14441
1038.3016 2021.26324
1038.4670 2024.58095
1038.6324 2024.25327
1038.7978 1997.89591
1038.9632 1996.54425
1039.1285 2009.48742
1039.2938 1985.85386
1039.4592 1994.02525
1039.6245 1985.17803
1039.7897 1989.64260
1039.9550 1988.27046
1040.1203 1982.72047
1040.2855 1976.18745
1040.4507 1997.77304
1040.6159 1974.38523
1040.7811 1978.01014
1040.9463 1985.62858
1041.1115 1975.06106
1041.2766 1969.36771
1041.4418 1959.86513
1041.6069 1940.92142
1041.7720 1951.12031
1041.9371 1949.15426
1042.1021 1947.88452
1042.2672 1953.37307
1042.4323 1949.95297
1042.5973 1948.49891
1042.7623 1947.82308
1042.9273 1940.08176
1043.0923 1948.37603
1043.2572 1930.90686
1043.4222 1921.40428
1043.5871 1918.72144
1043.7521 1932.58619
1043.9170 1947.55684
1044.0819 1917.86130
1044.2467 1922.59210
1044.4116 1932.29948
1044.5765 1912.39322
1044.7413 1917.53362
1044.9061 1909.23935
1045.0709 1925.00871
1045.2357 1909.58750
1045.4005 1895.43604
1045.5652 1902.05098
1045.7300 1881.48937
1045.8947 1874.26004
1046.0594 1882.71815
1046.2241 1886.52737
1046.3888 1890.76667
1046.5535 1878.99085
1046.7181 1891.74969
1046.8828 1886.32258
1047.0474 1873.44085
1047.2120 1875.01779
1047.3766 1875.36594
1047.5412 1869.18108
1047.7057 1861.89031
1047.8703 1877.39343
1048.0348 1868.68957
1048.1993 1866.25248
1048.3639 1860.88680
1048.5283 1848.86523
1048.6928 1847.30877
1048.8573 1831.19126
1049.0217 1846.96062
1049.1861 1826.93148
1049.3506 1843.49955
1049.5150 1836.24974
1049.6793 1843.88866
1049.8437 1829.34809
1050.0081 1839.77225
1050.1724 1825.29311
1050.3367 1834.26321
1050.5010 1811.12116
1050.6653 1819.19016
1050.8296 1819.31304
1050.9939 1815.79053
1051.1581 1805.89884
1051.3224 1814.45935
1051.4866 1814.04976
1051.6508 1813.64017
1051.8150 1791.91122
1051.9791 1793.20144
1052.1433 1794.43022
1052.3074 1784.57949
1052.4716 1779.21381
1052.6357 1784.08798
1052.7998 1781.95809
1052.9639 1783.20735
1053.1279 1773.99149
1053.2920 1781.85569
1053.4560 1773.52046
1053.6201 1781.95809
1053.7841 1773.49998
1053.9481 1769.42452
1054.1120 1762.52287
1054.2760 1761.56032
1054.4399 1773.13134
1054.6039 1765.57434
1054.7678 1756.72711
1054.9317 1767.51991
1055.0956 1766.59832
1055.2595 1753.06125
1055.4233 1732.86828
1055.5872 1736.00167
1055.7510 1729.24337
1055.9148 1733.52363
1056.0786 1734.85481
1056.2424 1747.12214
1056.4062 1727.70740
1056.5699 1736.75942
1056.7336 1722.75131
1056.8974 1720.84670
1057.0611 1707.96498
1057.2248 1716.99652
1057.3885 1708.12882
1057.5521 1713.47401
1057.7158 1699.67070
1057.8794 1701.45244
1058.0430 1705.63029
1058.2066 1706.26516
1058.3702 1699.36351
1058.5338 1704.31959
1058.6973 1688.48880
1058.8609 1696.16868
1059.0244 1680.07164
1059.1879 1698.29857
1059.3514 1684.06518
1059.5149 1686.21555
1059.6784 1692.81001
1059.8418 1674.93124
1060.0053 1678.39231
1060.1687 1675.68899
1060.3321 1666.63697
1060.4955 1675.13604
1060.6589 1658.99805
1060.8222 1669.46317
1060.9856 1665.59250
1061.1489 1669.15597
1061.3122 1651.91207
1061.4755 1672.63752
1061.6388 1647.38606
1061.8021 1667.14896
1061.9654 1644.41651
1062.1286 1649.24971
1062.2918 1642.63477
1062.4550 1649.86410
1062.6182 1643.16725
1062.7814 1641.95895
1062.9446 1638.21116
1063.1077 1628.85195
1063.2709 1619.84088
1063.4340 1630.01929
1063.5971 1618.53018
1063.7602 1632.21061
1063.9233 1621.95029
1064.0863 1627.07021
1064.2494 1619.02170
1064.4124 1624.81745
1064.5754 1599.42263
1064.7384 1611.30085
1064.9014 1608.02410
1065.0644 1601.96212
1065.2274 1594.03648
1065.3903 1599.70935
1065.5532 1595.34718
1065.7162 1603.06802
1065.8790 1594.69183
1066.0419 1594.89662
1066.2048 1590.78021
1066.3677 1592.56194
1066.5305 1589.67430
1066.6933 1581.64627
1066.8561 1563.31695
1067.0189 1572.34849
1067.1817 1564.77100
1067.3445 1568.90790
1067.5072 1553.79389
1067.6699 1556.27193
1067.8327 1551.35681
1067.9954 1570.19812
1068.1580 1556.92728
1068.3207 1549.00164
1068.4834 1550.96769
1068.6460 1551.97120
1068.8086 1542.57102
1068.9713 1550.16899
1069.1339 1536.95959
1069.2964 1537.88117
1069.4590 1526.71974
1069.6216 1539.82674
1069.7841 1527.06790
1069.9466 1533.45756
1070.1091 1520.39152
1070.2716 1524.34410
1070.4341 1531.73727
1070.5966 1517.87252
1070.7590 1514.12474
1070.9214 1525.30665
1071.0839 1519.10130
1071.2463 1524.38506
1071.4086 1508.98433
1071.5710 1501.79596
1071.7334 1494.40280
1071.8957 1507.07972
1072.0580 1493.27641
1072.2204 1498.25298
1072.3827 1484.57255
1072.5449 1494.36184
1072.7072 1486.14948
1072.8695 1487.52162
1073.0317 1477.07698
1073.1939 1476.15540
1073.3561 1473.94359
1073.5183 1479.18639
1073.6805 1461.73770
1073.8427 1485.10502
1074.0048 1459.58733
1074.1669 1475.25429
1074.3291 1457.08881
1074.4912 1469.64285
1074.6532 1449.73660
1074.8153 1468.04544
1074.9774 1444.76003
1075.1394 1457.78512
1075.3014 1451.90745
1075.4635 1449.90044
1075.6255 1439.41484
1075.7874 1442.32295
1075.9494 1433.53717
1076.1114 1437.42831
1076.2733 1433.27093
1076.4352 1442.30247
1076.5971 1418.66891
1076.7590 1435.05266
1076.9209 1415.86320
1077.0828 1428.13053
1077.2446 1426.16448
1077.4064 1414.16338
1077.5683 1406.79069
1077.7301 1411.23479
1077.8918 1400.58535
1078.0536 1414.20434
1078.2154 1406.34014
1078.3771 1406.21726
1078.5388 1399.13129
1078.7006 1408.08091
1078.8623 1396.59181
1079.0239 1403.47298
1079.1856 1382.17411
1079.3473 1395.81358
1079.5089 1386.31101
1079.6705 1389.05528
1079.8321 1384.20160
1079.9937 1391.77908
1080.1553 1374.24847
1080.3169 1385.67614
1080.4784 1365.95420
1080.6399 1375.45677
1080.8014 1375.82541
1080.9629 1379.04072
1081.1244 1365.38077
1081.2859 1365.99516
1081.4474 1359.62597
1081.6088 1362.26785
1081.7702 1354.77229
1081.9316 1357.27081
1082.0930 1354.05550
1082.2544 1353.13391
1082.4158 1342.03392
1082.5771 1349.87764
1082.7385 1336.85256
1082.8998 1348.38263
1083.0611 1335.89002
1083.2224 1339.53540
1083.3837 1335.76714
1083.5449 1338.49094
1083.7062 1325.19962
1083.8674 1330.01235
1084.0286 1323.90940
1084.1898 1328.23061
1084.3510 1318.44132
1084.5122 1320.16162
1084.6734 1310.70000
1084.8345 1314.81642
1084.9956 1301.52510
1085.1567 1316.14760
1085.3178 1298.51459
1085.4789 1311.80590
1085.6400 1301.77086
1085.8010 1305.98967
1085.9621 1293.08747
1086.1231 1302.91772
1086.2841 1277.58435
1086.4451 1301.79134
1086.6061 1288.23378
1086.7670 1298.24835
1086.9280 1284.07641
1087.0889 1286.24725
1087.2498 1291.12142
1087.4107 1289.01201
1087.5716 1288.54098
1087.7325 1272.81258
1087.8933 1265.03030
1088.0542 1300.50112
1088.2150 1272.32107
1088.3758 1286.51349
1088.5366 1271.97291
1088.6974 1275.49542
1088.8582 1266.85299
1089.0189 1272.87402
1089.1796 1268.61424
1089.3404 1276.33508
1089.5011 1267.07827
1089.6618 1276.10981
1089.8224 1263.31000
1089.9831 1271.52236
1090.1438 1259.19359
1090.3044 1277.74818
1090.4650 1262.85945
1090.6256 1266.85299
1090.7862 1254.85189
1090.9468 1271.03085
1091.1073 1252.98824
1091.2679 1266.42292
1091.4284 1269.55631
1091.5889 1269.69967
1091.7494 1263.84247
1091.9099 1262.69561
1092.0703 1260.66812
1092.2308 1269.26959
1092.3912 1256.30595
1092.5516 1273.61129
1092.7121 1258.88639
1092.8724 1265.50133
1093.0328 1246.66002
1093.1932 1263.00281
1093.3535 1249.03566
1093.5139 1252.98824
1093.6742 1255.26149
1093.8345 1262.34746
1093.9948 1252.33289
1094.1550 1252.70152
1094.3153 1246.57810
1094.4755 1257.73953
1094.6358 1254.74949
1094.7960 1261.03676
1094.9562 1249.30190
1095.1163 1260.15613
1095.2765 1247.52016
1095.4367 1258.27200
1095.5968 1255.69156
1095.7569 1262.79801
1095.9170 1245.98419
1096.0771 1260.89340
1096.2372 1252.94728
1096.3973 1255.50724
1096.5573 1250.14156
1096.7173 1259.95133
1096.8773 1250.30540
1097.0374 1259.93085
1097.1973 1248.54415
1097.3573 1258.21056
1097.5173 1246.90577
1097.6772 1254.11462
1097.8371 1248.25743
1097.9970 1256.26499
1098.1569 1248.19599
1098.3168 1255.20005
1098.4767 1246.98769
1098.6365 1255.38436
1098.7964 1252.08713
1098.9562 1261.18012
1099.1160 1242.78936
1099.2758 1260.13565
1099.4356 1241.54010
1099.5953 1261.42587
1099.7551 1247.02865
1099.9148 1254.09414
1100.0745 1254.03270
1100.2342 1252.53769
1100.3939 1243.40375
1100.5536 1260.36093
1100.7132 1249.07662
1100.8729 1254.13510
1101.0325 1253.64359
1101.1921 1253.13160
1101.3517 1245.94323
1101.5113 1253.93031
1101.6709 1251.00171
1101.8304 1251.41130
1101.9899 1247.68400
1102.1495 1258.29248
1102.3090 1246.43474
1102.4685 1258.51776
1102.6279 1251.28843
1102.7874 1256.51075
1102.9468 1247.88880
1103.1063 1250.36684
1103.2657 1243.60854
1103.4251 1251.10411
1103.5845 1244.63253
1103.7438 1256.16259
1103.9032 1245.69747
1104.0625 1249.40430
1104.2219 1247.25393
1104.3812 1254.09414
1104.5405 1245.77939
1104.6997 1259.25502
1104.8590 1247.15153
1105.0183 1258.08768
1105.1775 1250.44876
1105.3367 1257.90337
1105.4959 1254.05318
1105.6551 1255.85540
1105.8143 1239.49213
1105.9735 1254.64710
1106.1326 1247.97072
1106.2917 1261.71259
1106.4508 1248.76942
1106.6099 1256.98178
1106.7690 1248.17551
1106.9281 1261.11868
1107.0872 1254.15558
1107.2462 1251.12459
1107.4052 1244.93972
1107.5642 1249.36334
1107.7232 1255.09765
1107.8822 1262.69561
1108.0412 1250.57164
1108.2001 1254.27846
1108.3591 1242.19545
1108.5180 1256.08067
1108.6769 1249.03566
1108.8358 1257.16610
1108.9947 1241.94969
1109.1535 1255.40484
1109.3124 1251.10411
1109.4712 1250.36684
1109.6300 1250.22348
1109.7888 1250.59212
1109.9476 1237.97663
1110.1064 1258.41536
1110.2651 1250.01869
1110.4239 1251.08363
1110.5826 1237.23936
1110.7413 1255.05669
1110.9000 1243.69046
1111.0587 1252.39433
1111.2173 1242.80984
1111.3760 1248.31887
1111.5346 1250.98123
1111.6932 1256.42883
1111.8518 1247.78640
1112.0104 1256.30595
1112.1690 1247.02865
1112.3276 1259.41886
1112.4861 1246.98769
1112.6446 1251.43178
1112.8032 1249.19950
1112.9617 1248.25743
1113.1201 1248.60559
1113.2786 1262.67513
1113.4371 1245.61555
1113.5955 1255.44580
1113.7539 1242.87127
1113.9123 1256.44931
1114.0707 1250.44876
1114.2291 1256.01923
1114.3875 1253.00872
1114.5458 1262.38842
1114.7042 1245.75891
1114.8625 1244.96020
1115.0208 1242.74840
1115.1791 1253.29544
1115.3374 1248.58511
1115.4956 1254.13510
1115.6539 1241.72441
1115.8121 1256.87938
1115.9703 1249.34286
1116.1285 1250.53068
1116.2867 1245.55411
1116.4449 1249.09710
1116.6030 1244.93972
1116.7612 1256.32643
1116.9193 1247.15153
1117.0774 1258.12864
1117.2355 1244.87828
1117.3936 1257.86241
1117.5516 1247.19249
1117.7097 1251.88234
1117.8677 1245.75891
1118.0257 1254.72901
1118.1837 1257.59617
1118.3417 1264.84598
1118.4997 1256.16259
1118.6577 1256.96130
1118.8156 1250.57164
1118.9735 1246.92625
1119.1315 1244.71445
1119.2894 1254.17606
1119.4472 1241.58105
1119.6051 1253.50023
1119.7630 1244.44821
1119.9208 1251.26795
1120.0786 1246.61906
1120.2364 1255.89636
1120.3942 1249.87533
1120.5520 1245.79987
1120.7098 1249.81389
1120.8675 1258.96831
1121.0253 1247.39729
1121.1830 1257.43233
1121.3407 1254.25798
1121.4984 1252.96776
1121.6560 1245.65651
