# Averages = 100
# wavelength [µm]	intensity
446.8250 14.33578
447.0374 36746.70328
447.2498 1228.06446
447.4621 1217.96797
447.6745 1226.67184
447.8868 1233.59398
448.0992 1243.28087
448.3115 1246.90577
448.5238 1253.41831
448.7360 1239.47165
448.9483 1242.78936
449.1606 1242.13401
449.3728 1271.80907
449.5850 1235.08899
449.7972 1250.16204
450.0094 1236.89121
450.2216 1247.84784
450.4337 1248.01168
450.6459 1675.77091
450.8580 1985.32139
451.0701 2011.96546
451.2822 2042.19348
451.4943 2024.90862
451.7064 2017.92505
451.9184 2008.72967
452.1305 2064.59826
452.3425 2169.10610
452.5545 2103.30487
452.7665 2089.09196
452.9785 2201.85312
453.1905 2227.02266
453.4024 2165.17400
453.6143 2250.41046
453.8263 2236.75051
454.0382 2348.11905
454.2501 2214.46861
454.4619 2194.66475
454.6738 2337.71537
454.8856 2393.25628
455.0975 2253.99441
455.3093 2255.83758
455.5211 2327.61888
455.7329 2282.48165
455.9446 2330.50652
456.1564 2333.49655
456.3681 2390.86016
456.5798 2451.21380
456.7916 2398.58100
457.0033 2384.28618
457.2149 2344.20743
457.4266 2375.47991
457.6382 2435.99739
457.8499 2404.49963
458.0615 2521.02905
458.2731 2425.51179
458.4847 2514.78275
458.6963 2545.33844
458.9078 2560.69821
459.1194 2704.03554
459.3309 2720.03018
459.5424 2570.44654
459.7539 2480.64311
459.9654 2530.32683
460.1769 2592.52364
460.3883 2584.67992
460.5998 2448.94055
460.8112 2415.21051
461.0226 2498.52187
461.2340 2599.60961
461.4454 2547.24305
461.6567 2501.12280
461.8681 2491.45638
462.0794 2454.34719
462.2907 2559.96094
462.5020 2640.60995
462.7133 2737.78606
462.9246 2782.14507
463.1359 2629.59188
463.3471 2416.23449
463.5583 2468.90825
463.7696 2792.71259
463.9808 2658.95975
464.1919 2554.61574
464.4031 2557.42146
464.6143 2709.48314
464.8254 2551.11371
465.0365 2526.18993
465.2476 2619.70019
465.4587 2675.22062
465.6698 2509.76522
465.8809 2494.67169
466.0919 2514.02500
466.3030 2672.39442
466.5140 2637.66087
466.7250 2533.23495
466.9360 2591.25390
467.1469 2534.36133
467.3579 2432.65920
467.5688 2434.46141
467.7798 2532.39528
467.9907 2706.24735
468.2016 2529.22093
468.4125 2517.44511
468.6233 2416.88984
468.8342 2441.75218
469.0450 2681.22117
469.2559 2681.93796
469.4667 2661.02820
469.6775 2463.93168
469.8882 2481.70805
470.0990 2526.31281
470.3098 2682.79810
470.5205 2550.88844
470.7312 2693.65234
470.9419 2776.28788
471.1526 2623.30461
471.3633 2521.17241
471.5739 2555.98788
471.7846 2543.49527
471.9952 2390.92160
472.2058 2448.46952
472.4164 2425.65515
472.6270 2469.72743
472.8376 2506.34512
473.0481 2641.04002
473.2587 2695.37263
473.4692 2632.64335
473.6797 2560.92348
473.8902 2489.16266
474.1007 2426.12618
474.3111 2411.95424
474.5216 2364.83047
474.7320 2467.18795
474.9424 2587.01460
475.1528 2658.20200
475.3632 2483.32595
475.5736 2488.17963
475.7840 2454.63390
475.9943 2467.37227
476.2046 2504.13331
476.4149 2517.07647
476.6252 2599.01570
476.8355 2733.64917
477.0458 2747.67775
477.2561 2779.62607
477.4663 2664.69406
477.6765 2601.06367
477.8867 2575.60742
478.0969 2593.91626
478.3071 2588.44818
478.5173 2553.69415
478.7274 2626.23321
478.9375 2764.36870
479.1477 2772.29434
479.3578 2749.60284
479.5679 2851.83744
479.7779 2702.62244
479.9880 2660.86436
480.1980 2739.42444
480.4081 2789.90687
480.6181 2734.36596
480.8281 2623.14077
481.0381 2752.28568
481.2480 2796.09173
481.4580 2723.38884
481.6679 2709.13498
481.8778 2659.49222
482.0877 2728.07869
482.2976 2773.29784
482.5075 2807.82660
482.7174 2777.25042
482.9272 2779.27791
483.1371 2734.81651
483.3469 2755.43955
483.5567 2831.37824
483.7665 2846.47177
483.9762 2854.04925
484.1860 2823.30924
484.3957 2856.34298
484.6055 2805.57383
484.8152 2845.07915
485.0249 2883.43760
485.2346 2856.62969
485.4442 2876.49499
485.6539 2938.03645
485.8635 2928.18572
486.0732 2861.21714
486.2828 2899.47320
486.4924 2900.29238
486.7019 2882.67985
486.9115 2918.66266
487.1210 2967.34288
487.3306 2969.71852
487.5401 3021.61405
487.7496 3002.11739
487.9591 3077.89223
488.1686 3066.03450
488.3780 3030.80943
488.5875 3054.01292
488.7969 3060.77122
489.0063 3047.50038
489.2157 3116.57836
489.4251 3100.68613
489.6345 3112.48243
489.8438 3113.11730
490.0531 3102.07875
490.2625 3133.88370
490.4718 3102.36546
490.6811 3158.97132
490.8903 3190.26428
491.0996 3214.73751
491.3089 3206.83235
491.5181 3228.80705
491.7273 3231.91996
491.9365 3246.76774
492.1457 3281.86992
492.3549 3279.82195
492.5640 3277.46679
492.7732 3319.98262
492.9823 3307.98152
493.1914 3386.05009
493.4005 3380.70489
493.6096 3355.74015
493.8187 3362.15030
494.0277 3416.95394
494.2368 3421.86907
494.4458 3455.72199
494.6548 3483.84060
494.8638 3523.53023
495.0728 3461.06719
495.2817 3523.59167
495.4907 3493.69133
495.6996 3557.69035
495.9085 3565.94367
496.1174 3602.78662
496.3263 3585.84992
496.5352 3644.93382
496.7440 3644.03272
496.9529 3657.13972
497.1617 3700.24946
497.3705 3668.50594
497.5793 3756.85531
497.7881 3725.68523
497.9969 3774.67264
498.2056 3787.57485
498.4144 3820.81338
498.6231 3816.18497
498.8318 3844.63125
499.0405 3884.32089
499.2492 3837.36097
499.4578 3925.09595
499.6665 3920.79521
499.8751 3986.98556
500.0837 4001.07559
500.2923 4000.60455
500.5009 3997.08205
500.7095 4063.49768
500.9180 4074.45431
501.1266 4115.00409
501.3351 4129.33987
501.5436 4175.15293
501.7521 4159.09686
501.9606 4205.89294
502.1691 4214.84257
502.3775 4253.59013
502.5860 4284.10487
502.7944 4291.78475
503.0028 4349.63987
503.2112 4398.58632
503.4196 4355.59946
503.6279 4460.08682
503.8363 4402.33410
504.0446 4516.01685
504.2529 4529.39009
504.4612 4559.96626
504.6695 4567.35943
504.8778 4590.60387
505.0860 4614.79038
505.2943 4615.97820
505.5025 4705.24916
505.7107 4714.93605
505.9189 4765.97144
506.1271 4801.93377
506.3353 4809.73653
506.5434 4822.61825
506.7516 4880.00234
506.9597 4882.84901
507.1678 4922.82536
507.3759 4980.27089
507.5840 4975.21240
507.7920 5017.17528
508.0001 5011.68673
508.2081 5131.80009
508.4161 5095.38721
508.6241 5155.86373
508.8321 5165.32534
509.0401 5222.27935
509.2480 5262.17378
509.4560 5232.51920
509.6639 5319.20971
509.8718 5334.24180
510.0797 5388.32866
510.2876 5357.24049
510.4955 5535.82337
510.7033 5531.27688
510.9112 5596.19749
511.1190 5601.09213
511.3268 5594.76391
511.5346 5681.51587
511.7424 5681.16771
511.9501 5757.31119
512.1579 5796.24308
512.3656 5855.28601
512.5733 5815.92405
512.7810 5942.36565
512.9887 5979.70012
513.1964 6017.19842
513.4040 6039.54176
513.6117 6073.27181
513.8193 6112.85904
514.0269 6161.49830
514.2345 6237.41650
514.4421 6235.32758
514.6497 6295.47642
514.8572 6343.82896
515.0647 6361.13430
515.2723 6458.59713
515.4798 6463.12314
515.6873 6562.30627
515.8947 6512.80686
516.1022 6575.94574
516.3097 6606.05088
516.5171 6707.79397
516.7245 6708.55171
516.9319 6764.37934
517.1393 6828.07117
517.3467 6875.72740
517.5540 6923.50651
517.7614 6996.18893
517.9687 6952.71055
518.1760 7017.30348
518.3833 7089.94493
518.5906 7097.62482
518.7978 7228.03947
519.0051 7197.42233
519.2123 7322.40987
519.4196 7255.87136
519.6268 7365.72441
519.8340 7413.48304
520.0411 7479.81675
520.2483 7580.94544
520.4554 7575.41593
520.6626 7645.94797
520.8697 7673.61603
521.0768 7781.46206
521.2839 7827.72568
521.4909 7876.52877
521.6980 8013.02589
521.9050 8039.91572
522.1121 8094.51457
522.3191 8141.18777
522.5261 8179.75102
522.7331 8242.17311
522.9400 8392.06395
523.1470 8401.34124
523.3539 8430.85247
523.5608 8500.38101
523.7677 8525.36623
523.9746 8580.21083
524.1815 8663.89084
524.3884 8754.90257
524.5952 8705.71036
524.8020 8879.56243
525.0089 8815.58388
525.2157 8911.22402
525.4225 8967.89132
525.6292 9000.47450
525.8360 9068.32371
526.0427 9120.60835
526.2494 9201.93319
526.4562 9295.95543
526.6629 9250.06045
526.8695 9322.25135
527.0762 9452.58408
527.2829 9455.53316
527.4895 9672.90456
527.6961 9728.36355
527.9027 9766.35338
528.1093 9778.19063
528.3159 9807.41515
528.5224 9874.28133
528.7290 10042.15333
528.9355 10005.02365
529.1420 10207.03529
529.3485 10101.13483
529.5550 10262.10517
529.7615 10250.69798
529.9680 10379.94529
530.1744 10437.32938
530.3808 10506.10017
530.5872 10462.90851
530.7936 10555.92725
531.0000 10626.47977
531.2064 10685.09264
531.4127 10739.22045
531.6191 10836.88808
531.8254 10841.27073
532.0317 10944.57028
532.2380 10928.67804
532.4443 11088.37864
532.6505 10952.10680
532.8568 11154.67139
533.0630 11293.95375
533.2692 11252.70765
533.4754 11322.64579
533.6816 11486.11465
533.8878 11462.95213
534.0939 11599.89980
534.3001 11578.43708
534.5062 11645.54902
534.7123 11709.09749
534.9184 11680.20065
535.1245 11703.17886
535.3306 11786.46975
535.5366 11891.12095
535.7426 11974.43232
535.9487 12137.30728
536.1547 11979.51128
536.3607 12075.58150
536.5666 12073.26729
536.7726 12156.14859
536.9785 12225.59521
537.1845 12394.90079
537.3904 12303.04939
537.5963 12442.57750
537.8022 12443.64244
538.0080 12570.24787
538.2139 12588.12664
538.4197 12685.03652
538.6256 12653.08821
538.8314 12732.48795
539.0372 12741.70381
539.2430 12926.59443
539.4487 12687.28928
539.6545 12986.64088
539.8602 12892.02472
540.0659 12957.94883
540.2716 13186.99366
540.4773 13105.91458
540.6830 13308.39725
540.8887 13307.41422
541.0943 13205.22058
541.2999 13200.40785
541.5056 13229.52997
541.7112 13330.86346
541.9167 13258.87736
542.1223 13386.22006
542.3279 13390.78703
542.5334 13423.86172
542.7389 13588.55937
542.9444 13639.82003
543.1499 13694.05024
543.3554 13588.35458
543.5609 13707.44396
543.7663 13798.41473
543.9718 13630.09218
544.1772 13792.51658
544.3826 13739.33083
544.5880 13940.01129
544.7934 13902.88162
544.9987 13886.43643
545.2041 14107.59657
545.4094 13966.77824
545.6147 14014.00440
545.8200 14105.28237
546.0253 14107.63753
546.2306 14154.53602
546.4358 14044.47817
546.6411 14215.89316
546.8463 14113.18753
547.0515 14287.42871
547.2567 14270.77872
547.4619 14294.06413
547.6670 14370.00281
547.8722 14327.75321
548.0773 14512.54143
548.2824 14348.66297
548.4876 14311.82002
548.6926 14426.87490
548.8977 14504.57483
549.1028 14576.92957
549.3078 14503.89900
549.5129 14506.88904
549.7179 14513.29918
549.9229 14520.75379
550.1279 14433.16216
550.3328 14435.82452
550.5378 14256.15623
550.7427 14409.67196
550.9476 14408.01311
551.1526 14153.75779
551.3575 14353.84433
551.5623 14285.89273
551.7672 14171.45224
551.9720 14188.53230
552.1769 14124.75855
552.3817 14270.84016
552.5865 14040.85327
552.7913 14039.80881
552.9961 13953.81460
553.2008 13969.42012
553.4056 14078.74069
553.6103 13952.23766
553.8150 14045.29736
554.0197 14012.93946
554.2244 13891.29011
554.4291 13751.88488
554.6337 13871.97777
554.8384 13773.10184
555.0430 13701.87348
555.2476 13602.91563
555.4522 13472.02995
555.6568 13504.32642
555.8613 13462.69121
556.0659 13556.48818
556.2704 13295.10593
556.4750 13344.50294
556.6795 13297.19486
556.8839 13144.55975
557.0884 13207.37095
557.2929 13122.27785
557.4973 12999.85028
557.7018 12951.37485
557.9062 12865.81072
558.1106 12781.70064
558.3150 12683.97158
558.5193 12708.52672
558.7237 12615.97901
558.9280 12455.43874
559.1323 12366.31114
559.3367 12312.81820
559.5410 12233.43893
559.7452 12004.00499
559.9495 12123.54493
560.1537 12027.57711
560.3580 11906.46024
560.5622 11944.34766
560.7664 11871.43997
560.9706 11742.72514
561.1748 11699.98403
561.3789 11665.12760
561.5831 11564.51090
561.7872 11474.72795
561.9913 11429.87743
562.1954 11310.80853
562.3995 11281.85025
562.6036 11167.75791
562.8076 10987.82338
563.0117 11017.29365
563.2157 10895.70574
563.4197 10909.75481
563.6237 10795.66247
563.8277 10633.81150
564.0316 10473.08691
564.2356 10484.41218
564.4395 10415.68235
564.6434 10311.25642
564.8473 10283.17877
565.0512 10142.52428
565.2551 10088.29406
565.4590 10074.30644
565.6628 9983.97053
565.8666 9882.90328
566.0705 9762.91279
566.2743 9653.71509
566.4780 9566.45115
566.6818 9481.52188
566.8856 9479.92447
567.0893 9323.17294
567.2930 9251.94458
567.4967 9139.79782
567.7004 9083.97019
567.9041 9063.77722
568.1078 8950.44262
568.3114 8895.16795
568.5151 8830.57501
568.7187 8594.79237
568.9223 8619.59327
569.1259 8560.79609
569.3295 8530.87527
569.5330 8457.86518
569.7366 8365.29699
569.9401 8317.27213
570.1436 8241.14913
570.3471 8255.77162
570.5506 8144.40308
570.7541 8018.63732
570.9575 8006.67719
571.1609 7875.44335
571.3644 7855.51661
571.5678 7770.95598
571.7712 7720.55547
571.9746 7618.03416
572.1779 7523.19272
572.3813 7435.21199
572.5846 7456.59278
572.7879 7376.96775
572.9912 7367.54710
573.1945 7277.35455
573.3978 7172.58047
573.6010 7154.84506
573.8043 7149.80706
574.0075 6986.91163
574.2107 6965.28508
574.4139 6877.44770
574.6171 6821.80439
574.8203 6673.57241
575.0234 6687.80579
575.2266 6554.62638
575.4297 6521.94080
575.6328 6493.90411
575.8359 6451.69547
576.0390 6294.04284
576.2420 6284.58122
576.4451 6171.36951
576.6481 6184.00548
576.8512 6223.42888
577.0542 6075.19690
577.2571 6098.17511
577.4601 6037.26852
577.6631 5972.24551
577.8660 5908.28745
578.0689 5819.01649
578.2719 5802.93993
578.4748 5802.12075
578.6776 5749.18075
578.8805 5738.42892
579.0834 5652.82382
579.2862 5674.59373
579.4890 5673.38543
579.6918 5694.13135
579.8946 5560.62427
580.0974 5592.57258
580.3002 5573.01448
580.5029 5476.88283
580.7057 5504.94000
580.9084 5428.81700
581.1111 5464.32878
581.3138 5424.86442
581.5164 5360.04621
581.7191 5360.76300
581.9217 5357.50673
582.1244 5354.18902
582.3270 5329.30620
582.5296 5366.94787
582.7322 5367.88993
582.9347 5352.75544
583.1373 5309.87098
583.3398 5329.65435
583.5424 5316.46544
583.7449 5329.75675
583.9474 5292.89332
584.1498 5280.62598
584.3523 5321.54440
584.5548 5294.73649
584.7572 5321.25768
584.9596 5362.38090
585.1620 5409.85281
585.3644 5363.40488
585.5668 5381.97996
585.7691 5416.71351
585.9715 5403.52459
586.1738 5456.91513
586.3761 5453.94558
586.5784 5525.84976
586.7807 5511.28870
586.9830 5557.22464
587.1852 5563.96246
587.3875 5578.15488
587.5897 5645.45114
587.7919 5658.84485
587.9941 5660.42179
588.1963 5682.17122
588.3984 5699.92710
588.6006 5695.56493
588.8027 5805.92997
589.0048 5815.06391
589.2069 5864.72715
589.4090 5934.97248
589.6111 5951.27431
589.8131 6035.30247
590.0152 6091.86736
590.2172 6076.61000
590.4192 6180.87209
590.6212 6193.71285
590.8232 6182.08039
591.0252 6288.51332
591.2271 6333.54816
591.4291 6420.30011
591.6310 6411.49385
591.8329 6494.76426
592.0348 6581.29094
592.2367 6622.57799
592.4385 6749.59301
592.6404 6850.12779
592.8422 6917.26021
593.0440 7005.48670
593.2458 7100.55341
593.4476 7139.69010
593.6494 7213.02786
593.8512 7334.82056
594.0529 7417.00554
594.2546 7468.71675
594.4563 7492.84183
594.6580 7549.32480
594.8597 7629.89190
595.0614 7712.67079
595.2630 7805.05466
595.4647 7931.74201
595.6663 7978.88625
595.8679 8111.63558
596.0695 8261.75169
596.2711 8308.58874
596.4727 8387.37410
596.6742 8533.08707
596.8757 8647.99860
597.0773 8756.29519
597.2788 8766.35071
597.4802 8921.58675
597.6817 9038.58720
597.8832 9053.98792
598.0846 9176.45646
598.2860 9261.24236
598.4875 9273.93977
598.6889 9482.66874
598.8902 9581.23748
599.0916 9712.04124
599.2930 9746.65192
599.4943 9937.42020
599.6956 10020.28102
599.8969 10111.94810
600.0982 10179.18292
600.2995 10217.70521
600.5008 10457.17419
600.7020 10530.65531
600.9032 10676.53213
601.1045 10807.90932
601.3057 10840.49250
601.5068 11043.50765
601.7080 11178.46879
601.9092 11147.19630
602.1103 11445.27816
602.3115 11530.90373
602.5126 11610.30348
602.7137 11696.54344
602.9147 11852.53722
603.1158 12009.90314
603.3169 12168.72312
603.5179 12335.20250
603.7189 12366.72074
603.9199 12552.88110
604.1209 12583.74398
604.3219 12745.45160
604.5229 12912.58633
604.7238 12973.14476
604.9247 13120.06604
605.1257 13239.56502
605.3266 13382.34940
605.5275 13444.19805
605.7283 13613.46267
605.9292 13814.94184
606.1300 13671.46115
606.3309 13860.98018
606.5317 14081.32113
606.7325 14302.74751
606.9332 14426.83394
607.1340 14528.82278
607.3348 14646.00756
607.5355 14700.64736
607.7362 14930.75713
607.9369 14893.15642
608.1376 15143.78684
608.3383 15279.71053
608.5390 15443.13843
608.7396 15559.77025
608.9402 15807.14440
609.1409 15875.11648
609.3415 15825.71947
609.5421 15985.39960
609.7426 16152.65721
609.9432 16272.13570
610.1437 16266.54475
610.3443 16719.20728
610.5448 16755.88640
610.7453 16933.73201
610.9457 16896.11082
611.1462 17061.38190
611.3467 17099.78131
611.5471 17409.12699
611.7475 17352.09106
611.9479 17738.15365
612.1483 17575.27870
612.3487 17990.38148
612.5491 17892.36570
612.7494 18403.96877
612.9497 18211.56211
613.1501 18481.91446
613.3504 18549.59983
613.5506 18962.47033
613.7509 18911.98790
613.9512 18846.43242
614.1514 18969.96590
614.3516 19316.68701
614.5519 19297.57946
614.7521 19566.80543
614.9522 19550.68792
615.1524 19641.39245
615.3526 19928.31287
615.5527 20291.58157
615.7528 20126.37193
615.9529 20230.06059
616.1530 20539.87730
616.3531 20855.51025
616.5532 20995.14075
616.7532 20777.60551
616.9532 20948.48803
617.1533 20900.85227
617.3533 21189.26771
617.5532 21182.48894
617.7532 21394.28986
617.9532 21302.70470
618.1531 21826.08360
618.3530 21544.30358
618.5530 21842.71310
618.7528 22033.72715
618.9527 22216.83603
619.1526 22166.08737
619.3524 22197.68753
619.5523 22339.22265
619.7521 22475.02345
619.9519 22701.20112
620.1517 22835.95747
620.3515 23066.70210
620.5512 23166.66346
620.7510 23204.05937
620.9507 23209.42505
621.1504 23176.26843
621.3501 23454.42355
621.5498 23791.90832
621.7495 23812.53136
621.9492 23908.88829
622.1488 23746.15670
622.3484 23901.69992
622.5480 23932.84953
622.7476 24547.32207
622.9472 24204.65594
623.1468 24277.03116
623.3463 25048.33715
623.5459 25076.06664
623.7454 24935.61695
623.9449 25119.89317
624.1444 25294.15484
624.3439 25539.48101
624.5433 25430.95915
624.7428 25590.10680
624.9422 25522.76959
625.1416 25662.68681
625.3410 25658.71375
625.5404 25997.87786
625.7398 26002.56771
625.9391 26191.53378
626.1385 25885.83349
626.3378 26027.26621
626.5371 26647.10443
626.7364 26259.30107
626.9357 26464.48706
627.1350 26568.09380
627.3342 26634.40702
627.5335 26604.62956
627.7327 26814.44396
627.9319 26872.64723
628.1311 27536.00479
628.3303 27126.77967
628.5294 27211.23790
628.7286 27479.48085
628.9277 27863.72075
629.1268 27853.07131
629.3259 28159.63175
629.5250 28199.23947
629.7241 28218.69517
629.9231 27798.39054
630.1222 28393.28451
630.3212 28415.48449
630.5202 28218.12174
630.7192 28463.32504
630.9182 28384.84687
631.1171 28519.91041
631.3161 28556.61001
631.5150 28325.23050
631.7140 28674.79829
631.9129 28971.22129
632.1118 29176.18200
632.3106 29138.02834
632.5095 29263.75314
632.7083 29051.78838
632.9072 29192.46335
633.1060 29331.68427
633.3048 29069.50331
633.5036 29162.62445
633.7023 29467.21884
633.9011 29892.64339
634.0998 30178.68318
634.2986 29858.97478
634.4973 30207.53906
634.6960 30046.44584
634.8947 30140.42713
635.0933 30171.69961
635.2920 30329.29080
635.4906 30091.05060
635.6892 30445.30823
635.8878 30668.47539
636.0864 30899.97778
636.2850 30587.56014
636.4836 30746.35964
636.6821 30649.38832
636.8806 30973.19266
637.0792 31060.25181
637.2777 31135.92426
637.4761 31058.81823
637.6746 31190.99414
637.8731 31694.20054
638.0715 31325.40232
638.2699 31625.32735
638.4683 31569.43828
638.6667 31422.96756
638.8651 31591.20819
639.0635 31858.75483
639.2618 31801.26834
639.4602 31905.40755
639.6585 31758.30196
639.8568 32065.82495
640.0551 31917.63393
640.2534 31881.46680
640.4516 32148.25569
640.6499 32273.93953
640.8481 32728.36332
641.0463 32728.01516
641.2445 32977.66255
641.4427 32689.53383
641.6409 32791.95275
641.8390 32747.75758
642.0372 33024.80679
642.2353 32887.10138
642.4334 32871.82353
642.6315 33084.62796
642.8296 32945.67328
643.0277 32792.09610
643.2257 33527.48072
643.4237 33453.42617
643.6218 33289.85491
643.8198 33411.95481
644.0178 33481.15567
644.2157 33332.41170
644.4137 33448.87968
644.6116 34291.98746
644.8096 34420.25174
645.0075 33740.83811
645.2054 34155.12171
645.4033 33994.95007
645.6011 33957.24697
645.7990 33935.80473
645.9968 34267.53471
646.1947 34293.50295
646.3925 34592.21968
646.5903 34218.05579
646.7881 34591.58481
646.9858 34329.83392
647.1836 34334.91288
647.3813 34135.29737
647.5790 34262.16903
647.7767 35104.25282
647.9744 34485.37715
648.1721 34688.69948
648.3698 35166.34724
648.5674 34657.79564
648.7650 35024.42300
648.9627 34705.28803
649.1603 35619.68560
649.3578 35439.85346
649.5554 35515.15727
649.7530 35735.29343
649.9505 35232.29183
650.1480 35629.06530
650.3455 35724.23440
650.5430 35220.43409
650.7405 35456.54441
650.9380 35586.44707
651.1354 35865.83096
651.3329 35750.48936
651.5303 36224.59413
651.7277 36199.89562
651.9251 36205.77330
652.1225 35904.55805
652.3198 35921.67907
652.5172 36260.59742
652.7145 36507.68485
652.9118 36536.04922
653.1091 36641.31481
653.3064 36642.25687
653.5037 36551.38850
653.7009 36232.04873
653.8982 36631.25928
654.0954 37123.28377
654.2926 37125.63894
654.4898 37065.73585
654.6870 37076.34433
654.8841 37491.22184
655.0813 37167.78614
655.2784 37578.03524
655.4755 37515.16260
655.6726 37729.83068
655.8697 37215.85196
656.0668 37693.43828
656.2639 37626.12154
656.4609 37440.32982
656.6579 37749.49118
656.8550 37864.83278
657.0520 37675.14991
657.2490 37154.33098
657.4459 38019.53634
657.6429 38087.83610
657.8398 37907.04142
658.0367 38312.25251
658.2337 38051.03410
658.4305 38310.90085
658.6274 38455.24169
658.8243 38355.68993
659.0211 38468.86068
659.2180 38412.21387
659.4148 38663.41771
659.6116 38728.87080
659.8084 38863.48378
660.0052 38956.07245
660.2019 38911.11953
660.3987 38687.52231
660.5954 39026.15394
660.7921 39099.67602
660.9888 38775.68736
661.1855 39072.29467
661.3822 39102.17454
661.5788 39180.65270
661.7755 39038.42127
661.9721 39001.33256
662.1687 39391.59348
662.3653 39155.01213
662.5619 39407.01469
662.7584 39193.06339
662.9550 39311.98894
663.1515 39509.43360
663.3480 39422.45637
663.5445 39815.64589
663.7410 39480.55725
663.9375 39801.35107
664.1340 39781.34242
664.3304 39937.31572
664.5268 39706.10004
664.7233 40224.72765
664.9197 39987.10184
665.1160 40159.80704
665.3124 39924.90502
665.5088 40176.80518
665.7051 40089.37740
665.9014 39898.71150
666.0977 39937.35668
666.2940 39875.63090
666.4903 40231.60883
666.6866 40386.59910
666.8828 39980.75313
667.0791 40267.40732
667.2753 40692.83187
667.4715 40739.70987
667.6677 41093.41455
667.8639 41126.40733
668.0600 40448.57063
668.2562 40609.13138
668.4523 40607.47253
668.6484 41020.99838
668.8445 40449.24646
669.0406 41298.88726
669.2367 41179.51116
669.4327 41488.32437
669.6287 41361.51414
669.8248 41103.28576
670.0208 41133.34995
670.2168 41027.32660
670.4128 41218.56592
670.6087 41173.81781
670.8047 41211.54139
671.0006 41551.07413
671.1965 40870.45220
671.3924 41164.95010
671.5883 40989.86925
671.7842 41405.87315
671.9801 40734.24180
672.1759 41276.38008
672.3717 40981.34970
672.5675 42095.69046
672.7633 41532.88817
672.9591 42071.19675
673.1549 42180.12821
673.3506 42040.88682
673.5464 41678.53971
673.7421 41920.38434
673.9378 42063.94695
674.1335 41616.71153
674.3292 41989.93335
674.5249 41623.03975
674.7205 41012.29451
674.9161 41505.99834
675.1118 41226.47108
675.3074 41261.36847
675.5030 41306.73098
675.6985 41757.48890
675.8941 41755.09278
676.0896 41798.91931
676.2852 41741.37139
676.4807 41528.52600
676.6762 41708.39909
676.8717 42138.43157
677.0671 42293.77000
677.2626 42483.08423
677.4580 42150.96514
677.6534 42162.20849
677.8489 41864.43383
678.0442 41939.02085
678.2396 41540.01510
678.4350 41942.19520
678.6303 41604.87427
678.8257 41927.63415
679.0210 42145.96809
679.2163 41952.45553
679.4116 42098.49618
679.6069 41804.75602
679.8021 41226.51204
679.9974 41608.86781
680.1926 41772.31620
680.3878 41689.25058
680.5830 41772.99202
680.7782 41747.20810
680.9734 41579.86857
681.1685 41656.79028
681.3636 41585.31617
681.5588 41979.69351
681.7539 41777.49756
681.9490 41730.78339
682.1441 41649.90910
682.3391 41371.75399
682.5342 41969.69942
682.7292 42213.89922
682.9242 42360.00131
683.1192 42142.15887
683.3142 42386.01051
683.5092 42514.00856
683.7041 42809.07990
683.8991 42381.60738
684.0940 42245.94993
684.2889 41767.60587
684.4838 42141.29872
684.6787 42008.52891
684.8736 41542.30882
685.0684 42024.07299
685.2633 41869.34895
685.4581 42142.99854
685.6529 42560.49745
685.8477 42797.83655
686.0425 42563.01645
686.2372 42333.68491
686.4320 42021.28776
686.6267 41978.05514
686.8214 42239.23259
687.0161 41954.97453
687.2108 42287.91281
687.4055 42271.07850
687.6002 42307.24563
687.7948 42365.08027
687.9894 42494.67573
688.1841 42438.54091
688.3787 42489.33053
688.5732 42400.98116
688.7678 42363.42142
688.9624 42088.72737
689.1569 42330.89967
689.3514 41871.74508
689.5459 41481.01312
689.7404 42073.20376
689.9349 41798.50972
690.1294 42031.91671
690.3238 41962.36770
690.5182 41928.76053
690.7127 42032.89974
690.9071 42145.49706
691.1015 41909.24339
691.2958 42314.84360
691.4902 42022.59846
691.6845 42846.39389
691.8789 42204.08945
692.0732 42241.69015
692.2675 41935.39595
692.4618 42364.58876
692.6560 42183.28208
692.8503 42712.04714
693.0445 42497.70673
693.2387 41781.40918
693.4329 42385.72380
693.6271 42295.85893
693.8213 42345.05114
694.0155 42516.50708
694.2096 42304.93143
694.4038 41828.26670
694.5979 41898.24579
694.7920 41958.16936
694.9861 41858.26944
695.1801 41981.39332
695.3742 41716.59097
695.5682 41764.67727
695.7623 41966.38171
695.9563 41838.07647
696.1503 42061.67370
696.3443 41394.77316
696.5382 42066.97794
696.7322 41906.43767
696.9261 42227.10862
697.1201 41534.42415
697.3140 41818.37501
697.5079 42103.96425
697.7017 41555.78446
697.8956 41469.07346
698.0894 41610.67002
698.2833 41901.95262
698.4771 42038.04014
698.6709 42304.00984
698.8647 42061.61226
699.0585 42548.10724
699.2522 41697.54486
699.4460 41721.48561
699.6397 41962.83873
699.8334 41451.15374
700.0271 41922.67806
700.2208 42192.10883
700.4144 42303.49785
700.6081 42317.15780
700.8017 41885.28215
700.9954 42100.78990
701.1890 41679.15410
701.3826 41549.53815
701.5761 41552.87634
701.7697 41533.93263
701.9632 41139.12522
702.1568 41724.72140
702.3503 41597.17391
702.5438 41463.11387
702.7373 40706.12318
702.9308 41500.98082
703.1242 41435.28198
703.3177 41211.50043
703.5111 41344.27025
703.7045 41556.07118
703.8979 41856.89730
704.0913 42120.47088
704.2847 42182.36050
704.4780 42020.34569
704.6713 41382.32151
704.8647 41531.53651
705.0580 41456.37606
705.2513 41342.77523
705.4445 41465.01848
705.6378 41406.26226
705.8311 40705.26304
706.0243 40797.50355
706.2175 41230.17791
706.4107 41181.64105
706.6039 41581.17927
706.7971 41524.43006
706.9902 41483.34780
707.1834 41503.06974
707.3765 41034.90409
707.5696 40782.75818
707.7627 41136.99533
707.9558 41100.41861
708.1489 40707.04477
708.3419 40510.76745
708.5349 40613.02253
708.7280 40493.13443
708.9210 41222.94858
709.1140 41231.50909
709.3069 40775.09877
709.4999 40463.97136
709.6929 40992.04010
709.8858 40484.38961
710.0787 40676.01804
710.2716 40145.57366
710.4645 40627.05111
710.6574 40574.62311
710.8502 40820.17456
711.0431 40031.07173
711.2359 40102.46392
711.4287 39993.28670
711.6215 40238.67432
711.8143 40071.35527
712.0071 40034.12320
712.1998 40280.12520
712.3925 40051.24422
712.5853 40562.17146
712.7780 40441.23891
712.9707 40176.43655
713.1633 40177.58341
713.3560 40505.13553
713.5487 40323.33735
713.7413 40636.69704
713.9339 40569.13455
714.1265 40255.83630
714.3191 40301.38312
714.5117 39873.41909
714.7042 40361.71628
714.8968 40556.99010
715.0893 41197.02129
715.2818 40932.95620
715.4743 40882.04370
715.6668 40365.79174
715.8592 40335.99379
716.0517 40323.05063
716.2441 40622.87325
716.4366 40091.52776
716.6290 40313.95765
716.8214 40465.26158
717.0137 40600.91903
717.2061 40534.87204
717.3984 40392.31293
717.5908 40015.28189
717.7831 39817.83722
717.9754 40309.53404
718.1677 39348.58614
718.3600 39654.79843
718.5522 39645.43921
718.7445 39763.75036
718.9367 39587.50217
719.1289 39879.99307
719.3211 39575.37820
719.5133 39524.40426
719.7054 39479.18511
719.8976 39786.89241
720.0897 39710.60558
720.2818 39857.34254
720.4740 39849.96985
720.6660 39595.55069
720.8581 39538.26900
721.0502 39440.90857
721.2422 39416.92686
721.4343 39664.83347
721.6263 39821.38020
721.8183 39898.34287
722.0103 39853.59475
722.2022 39545.43690
722.3942 39971.86495
722.5861 39342.03264
722.7781 39821.48260
722.9700 40049.87208
723.1619 39777.02120
723.3538 39349.42581
723.5456 39178.52281
723.7375 39447.09344
723.9293 39337.44519
724.1211 39094.24890
724.3129 38834.52550
724.5047 38786.88975
724.6965 39137.33816
724.8883 39055.09174
725.0800 39322.55646
725.2718 39019.84620
725.4635 39082.18636
725.6552 38639.57936
725.8469 39192.26468
726.0385 39575.76731
726.2302 39155.13501
726.4218 38516.39404
726.6135 38637.98194
726.8051 38567.63422
726.9967 38686.66216
727.1882 38947.51194
727.3798 39373.73520
727.5714 39090.09152
727.7629 39111.36992
727.9544 39087.63396
728.1459 38695.30459
728.3374 38725.67596
728.5289 39295.95334
728.7204 38773.94659
728.9118 39274.22439
729.1032 39565.24075
729.2946 39543.16365
729.4860 38520.26470
729.6774 38766.12335
729.8688 38835.13989
730.0602 38614.34838
730.2515 38522.49698
730.4428 38818.77662
730.6341 38454.79114
730.8254 38251.22304
731.0167 38946.89755
731.2080 38545.72095
731.3992 38701.18226
731.5905 38901.47360
731.7817 38590.59195
731.9729 38116.89677
732.1641 38516.76267
732.3553 38175.85779
732.5464 38698.29462
732.7376 38769.15434
732.9287 38734.95326
733.1198 38788.24141
733.3109 38719.73685
733.5020 38615.86388
733.6931 38828.27920
733.8841 38409.85870
734.0752 38719.77781
734.2662 38527.41211
734.4572 38365.95025
734.6482 37995.67750
734.8392 38077.73961
735.0302 37973.06793
735.2211 38113.06707
735.4120 37872.61506
735.6030 38217.28820
735.7939 38113.76338
735.9848 38020.80608
736.1756 37801.57102
736.3665 37647.80953
736.5574 37517.78400
736.7482 38017.52933
736.9390 37808.08357
737.1298 38090.04790
737.3206 37947.79599
737.5114 38095.12687
737.7021 37816.05016
737.8929 37861.51507
738.0836 37790.90111
738.2743 37963.62679
738.4650 37797.98708
738.6557 37363.49003
738.8463 37417.24921
739.0370 37447.39531
739.2276 37168.76916
739.4182 36973.33150
739.6088 37450.22151
739.7994 36986.68426
739.9900 37188.55254
740.1806 37380.44721
740.3711 37538.48896
740.5617 37653.23665
740.7522 37361.23726
740.9427 37229.04088
741.1332 37291.97496
741.3236 37324.55814
741.5141 37403.99885
741.7045 37711.78807
741.8949 37594.43947
742.0854 37108.39504
742.2758 37750.88380
742.4661 37239.87464
742.6565 36867.14432
742.8469 36940.56400
743.0372 36923.72970
743.2275 36393.38771
743.4178 36612.29509
743.6081 36850.33050
743.7984 36630.41962
743.9886 36744.61435
744.1789 36734.80458
744.3691 36585.17999
744.5593 36644.07957
744.7495 36270.40719
744.9397 36321.07394
745.1299 36214.29285
745.3200 35927.04475
745.5102 36216.95520
745.7003 36212.90023
745.8904 36248.41200
746.0805 36546.06378
746.2706 36402.66501
746.4607 36722.25053
746.6507 36764.86876
746.8408 36361.48036
747.0308 36714.26346
747.2208 36174.91041
747.4108 36297.23558
747.6007 36058.93394
747.7907 36452.12346
747.9806 36364.24512
748.1706 36258.61089
748.3605 36430.74266
748.5504 36190.14729
748.7403 36470.96477
748.9302 36067.59684
749.1200 36107.49128
749.3098 36195.59489
749.4997 35875.59977
749.6895 35822.82362
749.8793 35889.28020
750.0691 36456.64947
750.2588 36269.09649
750.4486 35922.70305
750.6383 35847.54260
750.8280 35282.63090
751.0177 35171.83579
751.2074 35293.13698
751.3971 35205.79111
751.5868 35381.15868
751.7764 34990.46768
751.9660 34801.01009
752.1557 35093.84914
752.3453 35749.75209
752.5348 35615.42582
752.7244 35674.24349
752.9140 35653.10845
753.1035 35838.42914
753.2930 35486.48571
753.4825 35346.34321
753.6720 35104.35522
753.8615 35207.10181
754.0510 35088.91354
754.2404 35135.95538
754.4299 35368.31791
754.6193 35270.38405
754.8087 35102.83972
754.9981 35216.85015
755.1875 34858.08698
755.3768 34597.50344
755.5662 34872.77092
755.7555 34937.48673
755.9448 35313.76003
756.1341 34982.37820
756.3234 34545.50551
756.5127 34733.98007
756.7019 34890.99784
756.8912 35034.37613
757.0804 34894.19267
757.2696 34650.64823
757.4588 34340.36048
757.6480 34168.63830
757.8371 34102.07932
758.0263 34019.50522
758.2154 33697.93316
758.4045 33498.48149
758.5936 33360.07976
758.7827 33919.17523
758.9718 34173.30767
759.1609 34024.13363
759.3499 33855.34004
759.5389 33197.02049
759.7280 33347.97626
759.9170 33702.09054
760.1059 33768.46521
760.2949 33736.61929
760.4839 33604.48435
760.6728 33719.84643
760.8617 33656.44132
761.0506 33229.84943
761.2395 33202.20185
761.4284 33037.34036
761.6173 33071.33664
761.8061 33146.90669
761.9950 33101.33939
762.1838 32936.72366
762.3726 33182.78710
762.5614 32665.81835
762.7502 33385.43361
762.9389 33042.43980
763.1277 32779.33726
763.3164 33126.73420
763.5051 33117.12922
763.6938 33202.98008
763.8825 33022.94314
764.0712 33468.08963
764.2598 33056.73463
764.4484 33394.11700
764.6371 33434.09335
764.8257 33143.15891
765.0143 33414.80148
765.2029 33072.72926
765.3914 33392.29431
765.5800 33616.07585
765.7685 33194.89060
765.9570 33005.06437
766.1455 32653.30526
766.3340 32642.45103
766.5225 32705.93806
766.7110 32654.04253
766.8994 32475.48014
767.0878 32250.30597
767.2762 32531.71736
767.4646 32242.46225
767.6530 32363.21049
767.8414 32500.26056
768.0298 32249.26151
768.2181 32448.24215
768.4064 32408.04053
768.5947 32312.13415
768.7830 32025.35708
768.9713 32084.19523
769.1596 31820.68309
769.3478 31734.81176
769.5360 31899.34557
769.7243 31678.20590
769.9125 31351.18625
770.1007 31222.18470
770.2888 31180.61093
770.4770 31064.02007
770.6651 31075.65254
770.8533 30975.73214
771.0414 30878.84274
771.2295 30946.42571
771.4176 31224.82658
771.6056 31406.87052
771.7937 31019.47675
771.9817 30680.51745
772.1698 31128.30581
772.3578 30906.12168
772.5458 30835.07765
772.7337 30647.23795
772.9217 30784.47234
773.1096 30645.33334
773.2976 30906.03976
773.4855 31092.89643
773.6734 30778.79947
773.8613 30888.46819
774.0492 30558.35611
774.2370 30526.44876
774.4249 30986.42254
774.6127 31179.40263
774.8005 31001.10647
774.9883 30901.28848
775.1761 30931.14786
775.3639 30468.45028
775.5516 30665.69015
775.7394 30274.28236
775.9271 30211.94220
776.1148 30160.82490
776.3025 29404.77627
776.4902 29724.70995
776.6778 29555.32245
776.8655 29800.73055
777.0531 30225.31543
777.2407 30132.91108
777.4283 29659.13399
777.6159 29958.73134
777.8035 29860.12164
777.9911 29388.57684
778.1786 29786.92724
778.3661 29718.25885
778.5536 29685.22511
778.7411 30007.61635
778.9286 30225.41783
779.1161 29973.00568
779.3036 29446.57531
779.4910 29519.66732
779.6784 29511.08633
779.8658 29780.39422
780.0532 29494.39538
780.2406 29582.04845
780.4280 29001.40835
780.6153 29371.00527
780.8026 29445.36701
780.9900 29382.65821
781.1773 29056.70350
781.3646 29273.44004
781.5518 29025.63582
781.7391 29296.86880
781.9263 28809.12456
782.1136 28750.42978
782.3008 28492.30380
782.4880 28582.61922
782.6752 28583.88896
782.8623 28577.88841
783.0495 28823.68562
783.2366 28380.38230
783.4237 28410.79464
783.6108 28806.42124
783.7979 28546.90264
783.9850 28577.58121
784.1721 28857.21087
784.3591 28442.33336
784.5462 28436.25089
784.7332 28541.35265
784.9202 28587.73914
785.1072 28366.39468
785.2941 28433.28134
785.4811 28155.02382
785.6681 28245.99459
785.8550 28252.71193
786.0419 28176.32270
786.2288 27896.11961
786.4157 27640.43071
786.6025 27793.78261
786.7894 27866.56742
786.9762 27745.90110
787.1631 27390.53757
787.3499 27812.74680
787.5367 27753.08947
787.7234 27342.61510
787.9102 27414.88792
788.0970 27390.61949
788.2837 27611.08332
788.4704 27180.02686
788.6571 27046.45834
788.8438 27084.38672
789.0305 26936.31858
789.2171 26876.98892
789.4038 26652.77730
789.5904 26671.76197
789.7770 26741.31099
789.9636 26651.32325
790.1502 26989.99584
790.3368 26926.67265
790.5233 26831.66737
790.7099 26778.19491
790.8964 26407.14393
791.0829 26125.42535
791.2694 26139.98641
791.4559 26089.91357
791.6423 26039.96362
791.8288 26059.99275
792.0152 26234.50017
792.2016 26265.34258
792.3880 26344.78328
792.5744 26088.21376
792.7608 25772.02786
792.9471 25978.58599
793.1335 26327.00692
793.3198 25961.58785
793.5061 26038.89867
793.6924 25579.43688
793.8787 25683.41226
794.0650 25654.47446
794.2512 25763.81551
794.4375 25944.99930
794.6237 26079.46893
794.8099 25975.84171
794.9961 25514.33196
795.1823 25433.06856
795.3684 25508.72052
795.5546 25220.63276
795.7407 25370.25735
795.9268 25006.74290
796.1129 25135.90829
796.2990 25569.21752
796.4851 25928.36980
796.6712 25589.14425
796.8572 25213.03479
797.0432 25039.71520
797.2292 25344.24815
797.4152 25301.77328
797.6012 24799.14031
797.7872 24717.32396
797.9731 24851.89598
798.1591 24619.36961
798.3450 24566.28626
798.5309 24819.68144
798.7168 24898.83543
798.9027 24904.81550
799.0885 24828.20099
799.2744 24668.41846
799.4602 24996.52354
799.6460 24953.14756
799.8318 25238.55248
800.0176 24905.57325
800.2034 24911.04132
800.3892 24395.83382
800.5749 24282.97027
800.7606 24376.62388
800.9463 24437.07991
801.1320 24399.39729
801.3177 24474.72158
801.5034 24473.20608
801.6890 24510.13096
801.8747 24143.27832
802.0603 23779.39523
802.2459 23752.73068
802.4315 23819.74021
802.6171 23642.34516
802.8026 23926.93090
802.9882 23920.78699
803.1737 23545.90631
803.3592 23806.96089
803.5447 23982.30797
803.7302 23964.30633
803.9157 23906.22593
804.1012 23971.14654
804.2866 23438.87947
804.4720 23566.69320
804.6574 23316.67717
804.8428 23206.63981
805.0282 23168.73191
805.2136 23196.05181
805.3989 23510.94749
805.5843 23192.42691
805.7696 23110.34432
805.9549 22984.18944
806.1402 22958.73319
806.3255 22825.49235
806.5107 22913.88268
806.6960 23229.37226
806.8812 22840.11484
807.0664 22961.90754
807.2516 22617.78735
807.4368 22396.40193
807.6220 22382.55766
807.8072 22345.03888
807.9923 22437.97570
808.1774 22439.26592
808.3625 22736.99962
808.5476 22653.36057
808.7327 22696.49079
808.9178 22395.76706
809.1028 22406.00691
809.2879 22274.52731
809.4729 22155.66321
809.6579 22026.72309
809.8429 22266.19208
810.0279 22226.33861
810.2128 22203.56520
810.3978 22183.55654
810.5827 22211.14268
810.7676 22373.68996
810.9525 22418.41760
811.1374 22198.15856
811.3223 22063.15646
811.5072 21694.25585
811.6920 21721.94438
811.8768 21945.70545
812.0616 21599.59873
812.2464 21828.84835
812.4312 21734.19124
812.6160 21673.24369
812.8007 21775.49877
812.9855 21938.90619
813.1702 21582.80539
813.3549 21530.47979
813.5396 21350.23806
813.7243 21229.03927
813.9089 21420.38099
814.0936 21515.69345
814.2782 21507.44014
814.4628 21502.66837
814.6474 21563.20633
814.8320 21419.78707
815.0166 21138.31425
815.2012 21364.16424
815.3857 21155.98822
815.5702 21183.06237
815.7547 21204.40220
815.9392 21213.96622
816.1237 20923.15465
816.3082 20542.10959
816.4926 20705.61941
816.6771 20795.42284
816.8615 20542.10959
817.0459 20741.49983
817.2303 20694.47846
817.4147 20846.04863
817.5990 20877.28015
817.7834 20678.77054
817.9677 20575.10236
818.1520 20766.07545
818.3363 20545.85737
818.5206 20334.05644
818.7049 20428.01725
818.8891 20514.21625
819.0734 20508.95297
819.2576 20385.15326
819.4418 20172.10307
819.6260 20140.52340
819.8102 20221.86871
819.9944 20053.48472
820.1785 19913.54702
820.3627 20132.27008
820.5468 20094.42362
820.7309 19964.45952
820.9150 19757.16412
821.0991 19570.83993
821.2831 19837.69026
821.4672 19669.10147
821.6512 19574.13716
821.8352 19575.91889
822.0192 19884.03579
822.2032 19677.06807
822.3872 19851.75980
822.5711 19633.13914
822.7551 19584.39748
822.9390 19677.12951
823.1229 19757.98331
823.3068 19732.67042
823.4907 19384.70005
823.6745 19414.19080
823.8584 19369.31980
824.0422 19308.39273
824.2261 19318.03867
824.4099 19447.85940
824.5937 19626.13508
824.7774 19429.71440
824.9612 19439.95425
825.1449 19345.89104
825.3287 19352.99749
825.5124 19252.09407
825.6961 19380.11260
825.8798 19377.65504
826.0634 19508.78648
826.2471 19265.99978
826.4307 19287.83113
826.6144 19251.93023
826.7980 19373.08807
826.9816 19138.51372
827.1652 19309.25288
827.3487 19165.58787
827.5323 18873.15841
827.7158 18685.21632
827.8993 18947.37680
828.0828 18879.89623
828.2663 18622.34368
828.4498 18783.41642
828.6333 19099.41800
828.8167 18889.50120
829.0001 18917.74269
829.1836 18990.85518
829.3670 18983.27769
829.5504 19081.31396
829.7337 18673.31762
829.9171 18731.74617
830.1004 18765.90629
830.2837 18618.57542
830.4671 18450.43718
830.6504 18290.49082
830.8336 18367.00294
831.0169 18321.94763
831.2002 18452.73091
831.3834 18451.52261
831.5666 18393.17598
831.7498 18456.43773
831.9330 18606.63576
832.1162 18553.32713
832.2993 18356.06678
832.4825 18421.60178
832.6656 18345.21255
832.8487 18098.82143
833.0318 18031.89381
833.2149 17947.23078
833.3980 18153.72747
833.5811 18180.00291
833.7641 18134.80424
833.9471 18034.43329
834.1301 17881.92106
834.3131 17696.08838
834.4961 17867.58528
834.6791 17794.84143
834.8620 18203.59551
835.0450 18142.87324
835.2279 18234.58128
835.4108 18068.98252
835.5937 18246.68477
835.7766 17942.80717
835.9594 18007.80970
836.1423 17907.33635
836.3251 18219.69255
836.5079 18119.30112
836.6907 17851.50872
836.8735 17806.14622
837.0563 17889.76478
837.2390 17845.11906
837.4218 17624.73714
837.6045 17857.93935
837.7872 18004.38959
837.9699 17710.42416
838.1526 17562.72465
838.3352 17610.50376
838.5179 17703.19483
838.7005 17698.21826
838.8831 17704.44409
839.0658 17755.93002
839.2483 17979.48629
839.4309 17871.14874
839.6135 17884.46054
839.7960 17582.32371
839.9786 17627.23567
840.1611 17308.71509
840.3436 17527.54055
840.5261 17362.49475
840.7085 17177.09213
840.8910 17135.66173
841.0734 17220.52955
841.2559 17195.27810
841.4383 17282.68540
841.6207 17491.80349
841.8030 17194.02884
841.9854 17131.11524
842.1678 17016.85906
842.3501 17108.95621
842.5324 17044.11752
842.7147 17138.48792
842.8970 17342.75233
843.0793 17228.33231
843.2615 17175.49472
843.4438 17312.05327
843.6260 17313.58925
843.8082 17270.04944
843.9904 17257.59779
844.1726 16974.24083
844.3548 16798.19744
844.5369 16755.78400
844.7191 16815.83045
844.9012 16742.14453
845.0833 16741.26390
845.2654 16987.40927
845.4475 17167.69196
845.6296 16907.29273
845.8116 16807.39282
845.9936 16754.02275
846.1757 16565.69154
846.3577 16447.56471
846.5397 16497.06411
846.7216 16469.64181
846.9036 16443.91932
847.0855 16186.36677
847.2675 16416.25126
847.4494 16533.39508
847.6313 16675.99514
847.8132 16691.21155
847.9950 16525.81759
848.1769 16454.87595
848.3587 16611.91420
848.5406 16424.54554
848.7224 16418.52451
848.9042 16432.24590
849.0860 16511.56373
849.2677 16313.79139
849.4495 16124.84579
849.6312 16193.78042
849.8129 16384.54871
849.9946 16599.58543
850.1763 16453.64717
850.3580 16225.83113
850.5397 16095.41648
850.7213 15895.80097
850.9029 15955.82693
851.0845 16084.50081
851.2661 16122.77734
851.4477 16041.51394
851.6293 15976.12230
851.8109 15924.20629
851.9924 15954.00424
852.1739 16028.42742
852.3554 15908.96940
852.5369 15959.22656
852.7184 15752.32028
852.8999 15665.28160
853.0813 15700.30187
853.2628 15681.60391
853.4442 15822.62704
853.6256 15786.00936
853.8070 15811.11746
853.9883 15939.13598
854.1697 15773.18908
854.3510 15499.47805
854.5324 15550.37008
854.7137 15500.05148
854.8950 15540.41695
855.0763 15588.64661
855.2575 15617.95305
855.4388 15580.29090
855.6200 15619.20231
855.8013 15611.82962
855.9825 15425.36206
856.1637 15330.19296
856.3449 15390.95619
856.5260 15401.15507
856.7072 15260.52106
856.8883 15418.33753
857.0694 15370.72226
857.2505 15317.04500
857.4316 15283.29447
857.6127 15115.93447
857.7938 15210.30487
857.9748 15140.22338
858.1558 15077.30977
858.3368 15052.57031
858.5178 15002.55892
858.6988 15032.00871
858.8798 14983.98384
859.0607 15163.52926
859.2417 15114.21417
859.4226 15103.70809
859.6035 15117.08133
859.7844 15095.80293
859.9653 14990.63974
860.1462 14920.27153
860.3270 14940.75122
860.5078 14854.75701
860.6887 14935.42650
860.8695 14879.98799
861.0503 14785.37183
861.2310 14526.83625
861.4118 14548.70856
861.5925 14526.57002
861.7733 14536.83034
861.9540 14359.29193
862.1347 14251.67117
862.3154 14282.47262
862.4960 14482.72301
862.6767 14447.92802
862.8573 14464.29129
863.0380 14300.41283
863.2186 14314.72813
863.3992 14100.08053
863.5797 14159.10299
863.7603 14227.13651
863.9409 14264.63482
864.1214 14155.94911
864.3019 14091.86817
864.4824 13958.17677
864.6629 13891.31059
864.8434 13709.59433
865.0238 13742.32087
865.2043 13819.42689
865.3847 13639.47188
865.5651 13614.44570
865.7455 13739.10555
865.9259 13778.93855
866.1063 13660.09492
866.2866 13628.02373
866.4670 13550.11900
866.6473 13516.32751
866.8276 13498.32587
867.0079 13503.30243
867.1882 13351.71179
867.3684 13152.66970
867.5487 13209.19364
867.7289 13292.21829
867.9091 13293.46755
868.0893 13118.77582
868.2695 12853.66627
868.4497 12766.25896
868.6299 12807.23881
868.8100 12840.98934
868.9901 12924.91510
869.1703 13110.56347
869.3504 13101.20425
869.5304 13016.52074
869.7105 13113.88117
869.8906 13015.00524
870.0706 12870.78728
870.2506 12853.54339
870.4306 12883.70997
870.6106 12887.06864
870.7906 12997.67943
870.9706 12901.97785
871.1505 12793.23071
871.3305 12754.66746
871.5104 12706.60163
871.6903 12613.80817
871.8702 12650.89688
872.0500 12652.45334
872.2299 12613.93104
872.4097 12483.06584
872.5896 12467.29648
872.7694 12516.83685
872.9492 12538.91395
873.1290 12258.09647
873.3087 12283.10217
873.4885 12597.62921
873.6682 12519.68352
873.8480 12361.90801
874.0277 12267.82432
874.2074 11991.26662
874.3870 12052.58281
874.5667 12068.74128
874.7463 12274.41878
874.9260 12117.03239
875.1056 12087.33684
875.2852 12040.47931
875.4648 12072.81674
875.6444 12014.85923
875.8239 12136.87720
876.0035 12047.68816
876.1830 11901.52463
876.3625 11857.49331
876.5420 11865.93094
876.7215 11839.28686
876.9010 11755.40206
877.0804 11723.74047
877.2599 11531.45668
877.4393 11718.78438
877.6187 11770.55703
877.7981 11863.39146
877.9775 11742.04931
878.1568 11804.00036
878.3362 11690.48145
878.5155 11687.18423
878.6948 11505.61132
878.8741 11499.30357
879.0534 11469.91522
879.2327 11400.18188
879.4119 11426.31397
879.5912 11322.46147
879.7704 11445.79015
879.9496 11575.81568
880.1288 11569.09835
880.3080 11411.56859
880.4872 11474.09308
880.6663 11483.02222
880.8455 11384.12581
881.0246 11469.52611
881.2037 11438.17170
881.3828 11357.89133
881.5619 11350.23193
881.7409 11305.79100
881.9200 11250.39345
882.0990 11295.51020
882.2780 11244.67962
882.4570 11169.74444
882.6360 11179.12414
882.8150 11026.05895
882.9940 11039.73938
883.1729 11117.15260
883.3518 11287.13401
883.5308 11212.46507
883.7096 11151.25128
883.8885 10978.13648
884.0674 10869.34838
884.2463 10773.93352
884.4251 10843.81021
884.6039 10812.64013
884.7827 10860.64452
884.9615 10879.13767
885.1403 10820.60673
885.3191 10740.26491
885.4978 10602.45710
885.6765 10605.40617
885.8553 10720.54298
886.0340 10795.90822
886.2127 10702.99188
886.3913 10583.86154
886.5700 10449.67863
886.7486 10355.59494
886.9273 10332.55530
887.1059 10341.05437
887.2845 10232.49154
887.4630 10234.31423
887.6416 10346.89108
887.8202 10413.79822
887.9987 10403.94749
888.1772 10360.89918
888.3557 10337.16323
888.5342 10213.13824
888.7127 10360.59199
888.8912 10397.06631
889.0696 10428.74839
889.2481 10242.40371
889.4265 10092.34904
889.6049 10030.97142
889.7833 9989.47957
889.9616 9894.69958
890.1400 9883.37431
890.3183 9834.38690
890.4967 9924.72280
890.6750 10085.42691
890.8533 9955.15561
891.0316 9847.14574
891.2098 9735.65432
891.3881 9743.21133
891.5663 9665.28612
891.7445 9728.67075
891.9227 9677.90160
892.1009 9662.86951
892.2791 9763.38382
892.4573 9734.13883
892.6354 9650.95034
892.8136 9756.03161
892.9917 9713.57722
893.1698 9629.09851
893.3479 9700.04015
893.5259 9723.36651
893.7040 9579.98822
893.8820 9568.86775
894.0601 9483.95896
894.2381 9588.42585
894.4161 9637.29038
894.5941 9767.93031
894.7720 9685.25381
894.9500 9753.84029
895.1279 9777.53528
895.3058 9615.84815
895.4838 9579.14855
895.6616 9494.89512
895.8395 9378.42713
896.0174 9398.96826
896.1952 9486.62132
896.3731 9575.68748
896.5509 9566.84026
896.7287 9492.39660
896.9065 9435.01251
897.0842 9545.82810
897.2620 9459.07614
897.4397 9368.65832
897.6175 9371.58692
897.7952 9464.60566
897.9729 9533.27405
898.1506 9448.34479
898.3282 9355.69468
898.5059 9341.11314
898.6835 9332.67551
898.8611 9392.80388
899.0388 9240.23020
899.2163 9078.37923
899.3939 9071.49806
899.5715 9275.66006
899.7490 9290.77407
899.9266 9203.01861
900.1041 9192.73781
900.2816 9234.90548
900.4591 9185.93855
900.6365 9203.12101
900.8140 9089.49970
900.9914 9052.71818
901.1689 9032.27946
901.3463 9098.18309
901.5237 9126.03547
901.7011 9001.64184
901.8784 8980.97784
902.0558 8890.27330
902.2331 8954.43616
902.4104 9016.94017
902.5878 8995.53890
902.7650 8904.48621
902.9423 8833.68793
903.1196 8935.41053
903.2968 9010.55051
903.4741 8979.79002
903.6513 8924.74062
903.8285 8868.23716
904.0057 8931.56035
904.1828 8761.45607
904.3600 8660.90080
904.5371 8660.98272
904.7143 8721.66404
904.8914 8749.10682
905.0685 8824.84070
905.2456 8755.96751
905.4226 8756.74574
905.5997 8859.75857
905.7767 8933.17825
905.9537 8819.80270
906.1307 8738.43690
906.3077 8714.35279
906.4847 8686.21370
906.6617 8659.52866
906.8386 8751.17527
907.0156 8631.75821
907.1925 8593.03112
907.3694 8539.35386
907.5463 8530.99815
907.7231 8526.75885
907.9000 8591.61802
908.0768 8611.66763
908.2537 8483.03472
908.4305 8438.34804
908.6073 8514.57344
908.7841 8532.84132
908.9608 8471.99617
909.1376 8439.88402
909.3143 8453.40061
909.4910 8444.20523
909.6677 8461.26481
909.8444 8435.23513
910.0211 8396.32372
910.1978 8382.97096
910.3744 8486.80298
910.5510 8493.66367
910.7277 8506.60684
910.9043 8409.79935
911.0808 8368.26655
911.2574 8355.56914
911.4340 8312.88947
911.6105 8206.35414
911.7870 8207.15285
911.9636 8239.01924
912.1401 8180.81597
912.3165 8245.61370
912.4930 8152.51304
912.6695 8108.19500
912.8459 8065.90444
913.0223 8050.52420
913.1987 8026.46056
913.3751 8014.95098
913.5515 8014.60282
913.7279 8045.85483
913.9042 8020.25522
914.0805 7961.29420
914.2568 7941.55178
914.4331 7936.43186
914.6094 7895.86160
914.7857 7929.53020
914.9620 7948.86303
915.1382 7872.96531
915.3144 7863.66753
915.4906 7955.47797
915.6668 7948.96543
915.8430 7859.55111
916.0192 7699.39995
916.1953 7766.42997
916.3715 7805.68953
916.5476 7722.19385
916.7237 7840.13637
916.8998 7821.76609
917.0759 7682.17654
917.2519 7624.69005
917.4280 7745.66357
917.6040 7703.06582
917.7800 7727.60048
917.9560 7688.44332
918.1320 7731.69642
918.3080 7723.89366
918.4839 7676.97470
918.6599 7683.77395
918.8358 7655.32767
919.0117 7626.75850
919.1876 7578.73364
919.3635 7577.15670
919.5394 7700.58778
919.7152 7673.12452
919.8911 7585.00042
920.0669 7554.73144
920.2427 7394.23213
920.4185 7348.25523
920.5942 7372.72846
920.7700 7329.88495
920.9458 7440.57766
921.1215 7449.30201
921.2972 7416.90315
921.4729 7423.19041
921.6486 7284.21525
921.8243 7148.59876
921.9999 7176.02106
922.1756 7187.24393
922.3512 7241.31030
922.5268 7152.44894
922.7024 7256.50623
922.8780 7293.53351
923.0535 7301.97114
923.2291 7209.99686
923.4046 7263.73556
923.5801 7364.20891
923.7557 7315.89733
923.9311 7275.26563
924.1066 7203.54576
924.2821 7235.90367
924.4575 7254.23299
924.6330 7212.43395
924.8084 7124.88328
924.9838 7090.25213
925.1592 7092.50490
925.3345 7065.61507
925.5099 6990.63893
925.6852 6948.63509
925.8606 6995.96365
926.0359 6939.52163
926.2112 6931.04304
926.3864 6898.33698
926.5617 6789.42600
926.7370 6752.33729
926.9122 6722.19119
927.0874 6731.87808
927.2626 6744.67788
927.4378 6714.63418
927.6130 6729.23620
927.7882 6712.29950
927.9633 6620.12042
928.1384 6578.85385
928.3135 6570.31382
928.4886 6504.41019
928.6637 6545.53340
928.8388 6578.81289
929.0139 6537.83304
929.1889 6525.25851
929.3639 6499.59746
929.5389 6514.83435
929.7139 6520.28195
929.8889 6510.53362
930.0639 6530.70611
930.2388 6448.43920
930.4138 6384.97265
930.5887 6404.01876
930.7636 6427.16081
930.9385 6421.89753
931.1134 6381.12247
931.2882 6370.53447
931.4631 6293.36701
931.6379 6251.44509
931.8127 6183.47301
931.9875 6203.60454
932.1623 6208.35583
932.3371 6190.37466
932.5118 6136.08301
932.6866 6103.17215
932.8613 6125.78173
933.0360 6120.82564
933.2107 6072.80078
933.3854 6055.70024
933.5600 6070.77329
933.7347 5951.52007
933.9093 5961.65751
934.0839 5984.45140
934.2586 6030.67406
934.4331 6003.21080
934.6077 5961.51415
934.7823 5933.33410
934.9568 6009.04751
935.1314 5939.41657
935.3059 5916.09021
935.4804 5841.50318
935.6549 5870.91202
935.8293 5870.95298
936.0038 5838.12404
936.1782 5868.80261
936.3526 5875.60186
936.5271 5816.62036
936.7015 5753.35861
936.8758 5771.91321
937.0502 5725.48575
937.2246 5736.17615
937.3989 5823.21482
937.5732 5747.82909
937.7475 5714.63152
937.9218 5675.76107
938.0961 5648.09302
938.2703 5620.85503
938.4446 5582.68089
938.6188 5623.74267
938.7930 5650.30482
938.9672 5605.90486
939.1414 5641.74431
939.3156 5569.69677
939.4897 5537.31839
939.6639 5506.06638
939.8380 5482.94482
940.0121 5461.25683
940.1862 5498.40698
940.3603 5530.66249
940.5344 5531.56359
940.7084 5497.42395
940.8824 5468.60903
941.0565 5453.39263
941.2305 5391.25725
941.4045 5324.71875
941.5784 5280.13447
941.7524 5313.43444
941.9263 5381.85708
942.1003 5372.29306
942.2742 5367.48034
942.4481 5287.77339
942.6220 5319.14828
942.7958 5301.74054
942.9697 5332.46007
943.1435 5278.20938
943.3174 5294.16306
943.4912 5224.55260
943.6650 5178.59618
943.8387 5150.72332
944.0125 5131.45194
944.1863 5169.64656
944.3600 5195.12329
944.5337 5197.88805
944.7074 5223.99965
944.8811 5209.56147
945.0548 5162.45819
945.2284 5107.08111
945.4021 5117.95583
945.5757 5104.41875
945.7493 5080.45752
945.9229 4941.97387
946.0965 4873.44884
946.2701 4884.69218
946.4436 4929.70654
946.6172 4891.32760
946.7907 4897.75823
946.9642 4913.22039
947.1377 4916.29234
947.3112 4874.26802
947.4847 4896.63184
947.6581 4930.87388
947.8315 4922.08809
948.0050 4830.85109
948.1784 4781.92511
948.3518 4832.71474
948.5251 4833.02193
948.6985 4883.97540
948.8718 4859.35881
949.0452 4758.53731
949.2185 4760.50336
949.3918 4755.64967
949.5651 4765.97144
949.7383 4716.02148
949.9116 4709.52942
950.0848 4754.01130
950.2581 4756.69414
950.4313 4770.45649
950.6045 4800.93026
950.7776 4823.17120
950.9508 4725.56501
951.1239 4700.72315
951.2971 4623.02322
951.4702 4631.05125
951.6433 4622.94130
951.8164 4591.40258
951.9895 4591.81217
952.1625 4528.83713
952.3356 4563.26349
952.5086 4532.19580
952.6816 4549.03011
952.8546 4516.07829
953.0276 4479.60397
953.2006 4504.73254
953.3735 4510.91741
953.5465 4517.18419
953.7194 4512.24859
953.8923 4489.18846
954.0652 4482.98311
954.2381 4470.49050
954.4109 4447.59421
954.5838 4409.54295
954.7566 4419.00457
954.9294 4390.37397
955.1022 4356.95112
955.2750 4372.63856
955.4478 4352.56846
955.6206 4390.51733
955.7933 4384.06622
955.9660 4380.05220
956.1388 4393.71216
956.3115 4375.25996
956.4841 4327.86996
956.6568 4263.23607
956.8295 4275.23716
957.0021 4271.75562
957.1747 4271.79658
957.3473 4262.84695
957.5199 4238.47612
957.6925 4235.62945
957.8651 4248.34733
958.0376 4240.31930
958.2102 4210.84903
958.3827 4251.11209
958.5552 4288.73328
958.7277 4272.41097
958.9001 4230.96008
959.0726 4137.01975
959.2450 4094.64728
959.4175 4101.91757
959.5899 4060.17997
959.7623 4049.03902
959.9347 4020.51081
960.1070 4008.12060
960.2794 4043.79622
960.4517 4043.48902
960.6241 4049.05950
960.7964 4056.90322
960.9687 4061.08107
961.1409 4094.60632
961.3132 4055.46964
961.4855 4021.65767
961.6577 4009.69754
961.8299 3995.11600
962.0021 3947.43929
962.1743 3930.83026
962.3465 3871.02957
962.5186 3874.87975
962.6908 3878.85281
962.8629 3866.81076
963.0350 3837.75008
963.2071 3840.00285
963.3792 3863.20633
963.5513 3873.20042
963.7233 3919.54595
963.8954 3895.95335
964.0674 3893.92586
964.2394 3858.51648
964.4114 3833.49030
964.5834 3818.02814
964.7553 3803.97907
964.9273 3803.18037
965.0992 3795.21377
965.2711 3830.80747
965.4430 3791.73222
965.6149 3769.42984
965.7868 3757.57210
965.9587 3764.43280
966.1305 3788.04588
966.3023 3773.81250
966.4741 3786.57134
966.6459 3766.58317
966.8177 3766.41933
966.9895 3752.04259
967.1613 3770.65862
967.3330 3757.44923
967.5047 3716.30553
967.6764 3705.63562
967.8481 3710.63266
968.0198 3688.00260
968.1915 3662.79211
968.3631 3636.16852
968.5347 3631.72442
968.7064 3644.68807
968.8780 3646.73603
969.0496 3622.05801
969.2211 3609.62684
969.3927 3616.73329
969.5642 3577.20750
969.7358 3553.04146
969.9073 3541.83908
970.0788 3578.49772
970.2503 3590.31450
970.4217 3601.49640
970.5932 3588.75804
970.7646 3559.98408
970.9360 3578.66155
971.1074 3600.96393
971.2788 3625.43716
971.4502 3574.15602
971.6216 3528.32248
971.7929 3491.27473
971.9643 3502.90719
972.1356 3529.83798
972.3069 3523.83743
972.4782 3493.48653
972.6494 3476.11976
972.8207 3462.80796
972.9919 3453.89930
973.1632 3435.38566
973.3344 3422.91353
973.5056 3392.50119
973.6768 3375.58497
973.8479 3404.70709
974.0191 3431.24876
974.1902 3451.01166
974.3614 3430.12238
974.5325 3418.40800
974.7036 3383.57205
974.8746 3387.23791
975.0457 3402.31096
975.2167 3380.37722
975.3878 3348.51083
975.5588 3318.73336
975.7298 3328.97320
975.9008 3314.92414
976.0718 3288.48486
976.2427 3288.09575
976.4137 3275.15258
976.5846 3289.61124
976.7555 3278.83893
976.9264 3293.62526
977.0973 3282.68911
977.2682 3282.73007
977.4390 3308.22728
977.6098 3324.40623
977.7807 3290.61475
977.9515 3292.43744
978.1223 3307.92008
978.2930 3276.48376
978.4638 3249.83969
978.6346 3201.28235
978.8053 3177.62831
978.9760 3185.14436
979.1467 3148.52668
979.3174 3137.13997
979.4881 3135.82927
979.6587 3152.39734
979.8294 3151.90583
980.0000 3138.57355
980.1706 3139.16746
980.3412 3128.04699
980.5118 3167.06079
980.6824 3146.15103
980.8529 3155.30545
981.0235 3150.30841
981.1940 3142.83332
981.3645 3108.12025
981.5350 3122.23076
981.7055 3096.87690
981.8759 3100.89092
982.0464 3090.09813
982.2168 3082.43873
982.3872 3101.09572
982.5576 3080.47267
982.7280 3084.54813
982.8984 3083.87230
983.0687 3082.50016
983.2391 3089.95477
983.4094 3082.17249
983.5797 3039.94337
983.7500 3036.40039
983.9203 3018.62402
984.0906 3028.33139
984.2608 3009.98159
984.4311 3008.65041
984.6013 2991.11980
984.7715 3042.17566
984.9417 3043.01533
985.1119 3021.77789
985.2820 2971.25450
985.4522 2958.00414
985.6223 2967.36336
985.7924 2984.58678
985.9625 3007.29875
986.1326 3013.38122
986.3027 2968.71502
986.4727 2987.29010
986.6428 2981.90394
986.8128 2973.54823
986.9828 2960.80986
987.1528 2931.33959
987.3228 2930.82760
987.4928 2942.54198
987.6627 2942.68534
987.8327 2917.12669
988.0026 2942.97205
988.1725 2942.91061
988.3424 2922.28757
988.5123 2916.10270
988.6821 2911.94533
988.8520 2905.57614
989.0218 2866.17323
989.1916 2887.77930
989.3614 2841.82288
989.5312 2855.17563
989.7010 2834.88026
989.8707 2850.54722
990.0405 2835.82233
990.2102 2860.13172
990.3799 2847.65959
990.5496 2831.13248
990.7193 2824.84522
990.8890 2814.07290
991.0586 2800.41295
991.2283 2810.32512
991.3979 2811.43102
991.5675 2820.36016
991.7371 2801.94893
991.9067 2784.13160
992.0762 2769.26334
992.2458 2777.35282
992.4153 2798.11922
992.5848 2808.40003
992.7543 2788.59617
992.9238 2764.10246
993.0933 2771.65947
993.2627 2770.00061
993.4322 2746.98144
993.6016 2747.78015
993.7710 2730.43386
993.9404 2739.85451
994.1098 2725.02722
994.2792 2736.49584
994.4485 2743.25414
994.6179 2741.41097
994.7872 2738.97389
994.9565 2744.13477
995.1258 2751.52793
995.2951 2743.54086
995.4643 2757.03697
995.6336 2774.75190
995.8028 2741.53385
995.9720 2714.45970
996.1412 2710.67096
996.3104 2721.91431
996.4796 2736.49584
996.6487 2729.71707
996.8179 2723.04069
996.9870 2729.71707
997.1561 2688.04090
997.3252 2677.35051
997.4943 2651.87378
997.6634 2660.12709
997.8324 2669.17911
998.0014 2665.77948
998.1705 2645.56603
998.3395 2643.23135
998.5085 2610.34097
998.6774 2630.88210
998.8464 2610.68912
999.0153 2607.16662
999.1843 2606.94134
999.3532 2618.98340
999.5221 2607.08470
999.6910 2599.73249
999.8599 2626.39704
1000.0287 2639.68836
1000.1976 2632.86863
1000.3664 2634.13837
1000.5352 2638.50054
1000.7040 2636.59593
1000.8728 2630.61586
1001.0415 2597.09061
1001.2103 2566.28916
1001.3790 2575.79174
1001.5478 2548.34895
1001.7165 2560.24765
1001.8851 2552.54729
1002.0538 2556.60227
1002.2225 2563.44248
1002.3911 2562.00891
1002.5598 2543.53623
1002.7284 2530.36779
1002.8970 2512.42758
1003.0656 2523.71189
1003.2341 2501.67575
1003.4027 2504.60434
1003.5712 2466.14349
1003.7398 2471.16101
1003.9083 2477.38684
1004.0768 2467.24939
1004.2453 2465.48814
1004.4137 2499.15675
1004.5822 2489.55177
1004.7506 2492.13221
1004.9190 2467.29035
1005.0874 2468.17098
1005.2558 2456.78427
1005.4242 2460.79829
1005.5926 2459.13944
1005.7609 2461.67892
1005.9292 2440.13429
1006.0976 2459.89718
1006.2659 2465.50862
1006.4342 2484.12465
1006.6024 2467.49515
1006.7707 2454.47007
1006.9389 2433.76510
1007.1071 2436.69370
1007.2754 2446.19627
1007.4436 2433.37599
1007.6117 2433.13023
1007.7799 2433.00735
1007.9481 2420.59666
1008.1162 2428.56326
1008.2843 2408.73892
1008.4524 2417.66807
1008.6205 2406.69096
1008.7886 2419.01973
1008.9566 2413.46973
1009.1247 2393.87067
1009.2927 2390.14337
1009.4607 2391.16735
1009.6287 2374.41497
1009.7967 2381.62382
1009.9647 2371.69117
1010.1327 2351.08860
1010.3006 2329.19582
1010.4685 2324.15782
1010.6364 2338.82127
1010.8043 2333.37368
1010.9722 2321.90505
1011.1401 2305.82850
1011.3079 2297.94382
1011.4758 2309.96539
1011.6436 2309.33052
1011.8114 2317.29712
1011.9792 2314.32757
1012.1470 2336.46611
1012.3147 2329.46205
1012.4825 2328.51999
1012.6502 2336.09747
1012.8179 2324.93604
1012.9856 2300.17610
1013.1533 2315.69970
1013.3210 2276.48110
1013.4886 2285.47169
1013.6563 2288.48220
1013.8239 2286.55711
1013.9915 2296.22352
1014.1591 2279.69641
1014.3267 2282.62501
1014.4942 2303.16614
1014.6618 2286.63903
1014.8293 2297.51374
1014.9969 2277.75084
1015.1644 2300.46282
1015.3319 2292.22998
1015.4993 2275.14992
1015.6668 2248.36249
1015.8342 2254.05585
1016.0017 2234.80494
1016.1691 2262.55492
1016.3365 2248.44441
1016.5039 2251.51636
1016.6712 2234.08815
1016.8386 2243.97984
1017.0059 2224.89277
1017.1733 2264.82816
1017.3406 2249.71415
1017.5079 2241.17412
1017.6752 2222.47617
1017.8424 2218.05255
1018.0097 2206.48153
1018.1769 2223.68447
1018.3441 2204.63836
1018.5113 2219.93669
1018.6785 2201.81216
1018.8457 2200.56290
1019.0129 2195.40202
1019.1800 2210.20883
1019.3471 2211.72433
1019.5142 2211.72433
1019.6813 2190.46642
1019.8484 2186.08376
1020.0155 2191.89999
1020.1826 2187.78358
1020.3496 2174.73802
1020.5166 2161.09854
1020.6836 2161.75389
1020.8506 2170.17105
1021.0176 2150.10095
1021.1846 2167.87732
1021.3515 2157.02309
1021.5185 2166.56662
1021.6854 2149.93711
1021.8523 2155.48711
1022.0192 2161.75389
1022.1861 2159.09153
1022.3529 2132.40650
1022.5198 2157.78083
1022.6866 2144.42808
1022.8534 2164.10906
1023.0202 2140.72125
1023.1870 2133.77864
1023.3538 2122.63769
1023.5205 2142.91258
1023.6873 2115.30596
1023.8540 2132.42698
1024.0207 2116.94434
1024.1874 2129.04783
1024.3541 2117.23105
1024.5207 2116.76002
1024.6874 2103.83734
1024.8540 2107.58512
1025.0206 2092.75783
1025.1872 2109.91980
1025.3538 2092.57351
1025.5204 2100.43771
1025.6870 2090.21835
1025.8535 2085.99953
1026.0201 2086.88016
1026.1866 2090.50506
1026.3531 2073.11781
1026.5196 2076.96799
1026.6860 2083.52149
1026.8525 2093.16742
1027.0189 2067.19918
1027.1853 2059.56025
1027.3518 2061.23959
1027.5181 2071.74567
1027.6845 2071.72519
1027.8509 2058.92538
1028.0172 2045.06063
1028.1836 2052.65860
1028.3499 2046.63757
1028.5162 2042.88979
1028.6825 2030.21286
1028.8488 2026.56748
1029.0150 2027.65290
1029.1813 2027.77578
1029.3475 2015.50845
1029.5137 2032.28131
1029.6799 2025.05198
1029.8461 2011.57635
1030.0123 2010.57284
1030.1784 2018.37560
1030.3446 2017.69977
1030.5107 2015.91804
1030.6768 2005.14572
1030.8429 2000.37396
1031.0090 1989.68356
1031.1750 2013.19424
1031.3411 1996.89241
1031.5071 2010.88004
1031.6732 1994.84444
1031.8392 2000.53779
1032.0051 1988.04518
1032.1711 1992.55072
1032.3371 1977.27287
1032.5030 1976.86328
1032.6690 1981.51216
1032.8349 1988.96677
1033.0008 1971.39520
1033.1667 1978.13302
1033.3325 1958.59539
1033.4984 1967.62694
1033.6642 1971.00608
1033.8300 1990.99426
1033.9959 1962.44558
1034.1616 1972.00959
1034.3274 1970.43265
1034.4932 1969.59299
1034.6589 1948.56035
1034.8247 1964.57546
1034.9904 1949.44097
1035.1561 1958.59539
1035.3218 1951.50942
1035.4875 1947.00389
1035.6531 1941.10574
1035.8188 1944.56681
1035.9844 1931.29597
1036.1500 1944.19817
1036.3156 1921.44524
1036.4812 1931.64412
1036.6468 1920.91277
1036.8123 1917.55410
1036.9779 1915.38325
1037.1434 1931.56221
1037.3089 1920.81037
1037.4744 1927.77346
1037.6399 1925.95077
1037.8053 1925.21350
1037.9708 1915.38325
1038.1362 1920.21646
1038.3016 1922.51018
1038.4670 1922.20299
1038.6324 1915.03510
1038.7978 1877.53679
1038.9632 1900.12589
1039.1285 1904.11943
1039.2938 1888.43198
1039.4592 1890.86907
1039.6245 1889.06685
1039.7897 1892.01593
1039.9550 1890.84859
1040.1203 1902.39913
1040.2855 1889.92700
1040.4507 1894.47349
1040.6159 1880.95690
1040.7811 1886.01538
1040.9463 1893.22423
1041.1115 1883.47590
1041.2766 1866.68256
1041.4418 1864.45027
1041.6069 1856.03312
1041.7720 1867.05119
1041.9371 1853.86227
1042.1021 1865.06466
1042.2672 1850.52408
1042.4323 1859.16651
1042.5973 1845.69088
1042.7623 1855.05009
1042.9273 1854.66098
1043.0923 1856.09456
1043.2572 1830.12631
1043.4222 1836.47502
1043.5871 1827.32060
1043.7521 1834.28369
1043.9170 1855.52113
1044.0819 1828.30362
1044.2467 1836.55694
1044.4116 1825.45695
1044.5765 1811.08020
1044.7413 1824.80160
1044.9061 1821.07429
1045.0709 1819.57928
1045.2357 1815.23758
1045.4005 1807.47578
1045.5652 1802.27394
1045.7300 1794.51214
1045.8947 1784.41565
1046.0594 1790.47764
1046.2241 1783.37119
1046.3888 1799.01767
1046.5535 1791.35827
1046.7181 1785.19388
1046.8828 1790.78483
1047.0474 1770.32563
1047.2120 1774.83116
1047.3766 1775.03595
1047.5412 1767.70423
1047.7057 1767.76567
1047.8703 1777.69831
1048.0348 1774.25773
1048.1993 1777.69831
1048.3639 1776.81769
1048.5283 1754.80202
1048.6928 1764.22268
1048.8573 1754.45387
1049.0217 1750.86992
1049.1861 1744.23450
1049.3506 1758.42693
1049.5150 1738.29540
1049.6793 1755.66217
1049.8437 1733.35979
1050.0081 1749.43635
1050.1724 1728.75186
1050.3367 1732.29485
1050.5010 1733.85130
1050.6653 1735.73543
1050.8296 1721.21534
1050.9939 1726.70389
1051.1581 1719.37216
1051.3224 1718.69633
1051.4866 1719.24929
1051.6508 1723.98009
1051.8150 1706.01941
1051.9791 1704.85207
1052.1433 1707.20723
1052.3074 1707.28915
1052.4716 1700.26462
1052.6357 1698.03233
1052.7998 1691.13067
1052.9639 1700.85853
1053.1279 1680.27644
1053.2920 1697.88897
1053.4560 1691.37643
1053.6201 1700.28510
1053.7841 1690.45485
1053.9481 1681.05467
1054.1120 1684.78197
1054.2760 1682.95928
1054.4399 1688.71407
1054.6039 1673.53862
1054.7678 1675.27940
1054.9317 1670.93770
1055.0956 1675.97571
1055.2595 1662.80727
1055.4233 1654.26724
1055.5872 1657.60543
1055.7510 1641.71319
1055.9148 1657.33919
1056.0786 1651.83015
1056.2424 1662.09048
1056.4062 1641.22168
1056.5699 1655.47554
1056.7336 1641.40599
1056.8974 1629.50730
1057.0611 1634.91393
1057.2248 1629.93737
1057.3885 1622.58516
1057.5521 1629.56873
1057.7158 1616.58461
1057.8794 1635.18017
1058.0430 1627.21357
1058.2066 1623.40435
1058.3702 1608.08554
1058.5338 1624.48977
1058.6973 1612.59107
1058.8609 1612.55011
1059.0244 1609.60104
1059.1879 1620.14808
1059.3514 1600.69238
1059.5149 1609.62152
1059.6784 1603.06802
1059.8418 1602.74034
1060.0053 1599.52503
1060.1687 1595.63389
1060.3321 1584.98445
1060.4955 1594.32319
1060.6589 1588.89607
1060.8222 1591.49700
1060.9856 1592.41858
1061.1489 1594.99902
1061.3122 1580.84756
1061.4755 1593.29921
1061.6388 1577.79608
1061.8021 1597.37467
1061.9654 1575.89147
1062.1286 1570.23908
1062.2918 1574.84701
1062.4550 1571.20163
1062.6182 1568.58022
1062.7814 1570.42340
1062.9446 1568.31399
1063.1077 1563.82894
1063.2709 1544.00460
1063.4340 1557.37784
1063.5971 1550.35330
1063.7602 1553.95773
1063.9233 1549.96419
1064.0863 1553.28190
1064.2494 1552.79039
1064.4124 1543.30829
1064.5754 1539.39667
1064.7384 1549.02212
1064.9014 1529.40258
1065.0644 1531.47103
1065.2274 1523.72971
1065.3903 1540.23634
1065.5532 1524.93801
1065.7162 1527.23174
1065.8790 1522.58285
1066.0419 1533.10941
1066.2048 1519.46993
1066.3677 1519.18322
1066.5305 1517.29909
1066.6933 1510.11072
1066.8561 1513.51035
1067.0189 1507.05924
1067.1817 1501.18157
1067.3445 1507.87843
1067.5072 1501.69357
1067.6699 1506.99780
1067.8327 1492.23195
1067.9954 1491.18749
1068.1580 1489.59007
1068.3207 1494.54615
1068.4834 1480.06702
1068.6460 1494.77143
1068.8086 1476.07348
1068.9713 1489.18048
1069.1339 1473.39064
1069.2964 1474.68086
1069.4590 1466.81666
1069.6216 1485.08454
1069.7841 1472.24377
1069.9466 1468.78271
1070.1091 1464.78917
1070.2716 1461.51242
1070.4341 1462.27017
1070.5966 1469.17182
1070.7590 1455.28659
1070.9214 1462.10633
1071.0839 1456.45394
1071.2463 1454.77460
1071.4086 1460.65227
1071.5710 1448.65117
1071.7334 1444.04325
1071.8957 1450.80154
1072.0580 1440.80745
1072.2204 1439.33292
1072.3827 1433.12757
1072.5449 1436.15857
1072.7072 1428.80636
1072.8695 1428.70396
1073.0317 1422.27334
1073.1939 1420.14345
1073.3561 1426.12352
1073.5183 1433.12757
1073.6805 1419.63146
1073.8427 1426.43071
1074.0048 1414.96209
1074.1669 1420.88072
1074.3291 1409.30970
1074.4912 1420.51208
1074.6532 1403.02243
1074.8153 1403.82114
1074.9774 1401.95749
1075.1394 1410.14936
1075.3014 1409.98553
1075.4635 1409.33017
1075.6255 1390.93942
1075.7874 1401.34310
1075.9494 1382.50178
1076.1114 1398.61930
1076.2733 1385.24606
1076.4352 1387.23259
1076.5971 1372.97873
1076.7590 1380.94533
1076.9209 1374.04367
1077.0828 1385.12318
1077.2446 1378.03721
1077.4064 1376.70603
1077.5683 1366.58907
1077.7301 1373.47024
1077.8918 1357.35273
1078.0536 1375.68205
1078.2154 1369.06711
1078.3771 1368.41176
1078.5388 1357.59848
1078.7006 1367.06010
1078.8623 1359.01158
1079.0239 1357.94664
1079.1856 1351.16786
1079.3473 1362.12450
1079.5089 1351.22930
1079.6705 1347.17432
1079.8321 1343.13983
1079.9937 1351.27026
1080.1553 1332.63375
1080.3169 1342.11584
1080.4784 1336.58632
1080.6399 1344.18429
1080.8014 1339.65828
1080.9629 1348.15735
1081.1244 1339.08485
1081.2859 1336.64776
1081.4474 1317.54022
1081.6088 1332.83854
1081.7702 1316.65959
1081.9316 1323.33597
1082.0930 1324.07324
1082.2544 1320.63265
1082.4158 1317.27398
1082.5771 1321.94335
1082.7385 1315.71752
1082.8998 1328.51733
1083.0611 1315.49225
1083.2224 1316.37287
1083.3837 1311.94926
1083.5449 1314.44778
1083.7062 1305.31384
1083.8674 1301.40222
1084.0286 1299.04706
1084.1898 1314.63210
1084.3510 1297.14245
1084.5122 1300.64447
1084.6734 1295.48359
1084.8345 1297.63396
1084.9956 1288.66386
1085.1567 1307.03414
1085.3178 1288.27474
1085.4789 1291.32622
1085.6400 1283.87161
1085.8010 1287.82419
1085.9621 1292.20684
1086.1231 1282.25371
1086.2841 1267.87697
1086.4451 1281.68028
1086.6061 1277.46147
1086.7670 1286.16533
1086.9280 1272.32107
1087.0889 1280.20575
1087.2498 1277.19523
1087.4107 1283.70777
1087.5716 1268.98288
1087.7325 1268.81904
1087.8933 1258.92735
1088.0542 1289.70832
1088.2150 1265.76757
1088.3758 1266.17716
1088.5366 1262.63417
1088.6974 1266.21812
1088.8582 1259.97181
1089.0189 1268.47088
1089.1796 1264.68214
1089.3404 1269.96590
1089.5011 1252.76296
1089.6618 1275.35206
1089.8224 1261.18012
1089.9831 1270.86701
1090.1438 1254.58566
1090.3044 1271.39948
1090.4650 1261.11868
1090.6256 1265.50133
1090.7862 1261.54875
1090.9468 1258.16960
1091.1073 1244.16150
1091.2679 1261.67163
1091.4284 1258.86591
1091.5889 1263.74008
1091.7494 1248.91278
1091.9099 1257.73953
1092.0703 1257.92385
1092.2308 1263.90391
1092.3912 1254.09414
1092.5516 1267.52882
1092.7121 1247.04913
1092.8724 1255.97827
1093.0328 1250.14156
1093.1932 1256.65410
1093.3535 1245.84083
1093.5139 1258.55872
1093.6742 1255.71204
1093.8345 1261.40539
1093.9948 1245.02164
1094.1550 1253.97127
1094.3153 1250.05965
1094.4755 1260.23805
1094.6358 1254.64710
1094.7960 1260.27901
1094.9562 1253.31592
1095.1163 1268.10225
1095.2765 1247.41777
1095.4367 1245.71795
1095.5968 1256.34691
1095.7569 1260.03325
1095.9170 1246.41426
1096.0771 1256.83842
1096.2372 1252.08713
1096.3973 1250.81739
1096.5573 1249.01518
1096.7173 1255.11813
1096.8773 1255.95780
1097.0374 1254.89285
1097.1973 1247.84784
1097.3573 1250.96075
1097.5173 1251.84138
1097.6772 1255.56868
1097.8371 1245.51315
1097.9970 1253.90983
1098.1569 1242.44120
1098.3168 1240.98714
1098.4767 1241.19194
1098.6365 1255.22053
1098.7964 1253.33640
1098.9562 1257.12514
1099.1160 1241.66297
1099.2758 1263.08473
1099.4356 1249.11758
1099.5953 1259.80798
1099.7551 1258.00576
1099.9148 1266.32052
1100.0745 1251.73898
1100.2342 1261.75355
1100.3939 1246.37330
1100.5536 1260.07421
1100.7132 1247.11057
1100.8729 1259.21407
1101.0325 1257.10466
1101.1921 1256.81794
1101.3517 1246.94673
1101.5113 1258.19008
1101.6709 1246.84433
1101.8304 1252.49673
1101.9899 1246.39378
1102.1495 1259.60318
1102.3090 1247.35633
1102.4685 1258.70207
1102.6279 1246.27090
1102.7874 1249.40430
1102.9468 1242.29784
1103.1063 1247.17201
1103.2657 1244.69397
1103.4251 1255.17957
1103.5845 1246.72146
1103.7438 1257.88289
1103.9032 1247.25393
1104.0625 1248.44175
1104.2219 1243.89526
1104.3812 1256.32643
1104.5405 1245.12404
1104.6997 1254.13510
1104.8590 1245.77939
1105.0183 1254.87237
1105.1775 1236.27682
1105.3367 1258.35392
1105.4959 1244.32533
1105.6551 1249.46573
1105.8143 1248.23695
1105.9735 1257.41185
1106.1326 1245.98419
1106.2917 1252.94728
1106.4508 1240.14748
1106.6099 1252.33289
1106.7690 1244.57109
1106.9281 1254.87237
1107.0872 1248.64655
1107.2462 1259.21407
1107.4052 1250.34636
1107.5642 1250.30540
1107.7232 1244.85780
1107.8822 1252.57865
1108.0412 1248.42127
1108.2001 1247.90928
1108.3591 1239.79932
1108.5180 1249.05614
1108.6769 1244.30485
1108.8358 1254.42182
1108.9947 1252.14857
1109.1535 1253.07016
1109.3124 1247.90928
1109.4712 1252.23049
1109.6300 1246.55762
1109.7888 1250.10060
1109.9476 1252.04618
1110.1064 1259.54174
1110.2651 1253.39783
1110.4239 1256.63362
1110.5826 1245.24692
1110.7413 1254.19654
1110.9000 1239.67644
1111.0587 1262.55225
1111.2173 1245.14452
1111.3760 1259.35742
1111.5346 1254.87237
1111.6932 1248.83086
1111.8518 1244.96020
1112.0104 1250.94027
1112.1690 1247.54064
1112.3276 1257.41185
1112.4861 1246.70098
1112.6446 1254.56518
1112.8032 1248.42127
1112.9617 1256.87938
1113.1201 1246.12755
1113.2786 1252.06665
1113.4371 1239.34877
1113.5955 1256.51075
1113.7539 1242.68696
1113.9123 1258.57920
1114.0707 1251.73898
1114.2291 1260.44285
1114.3875 1244.69397
1114.5458 1259.23455
1114.7042 1241.11002
1114.8625 1244.40725
1115.0208 1248.33935
1115.1791 1256.03971
1115.3374 1241.92921
1115.4956 1251.00171
1115.6539 1240.14748
1115.8121 1253.70503
1115.9703 1253.33640
1116.1285 1249.30190
1116.2867 1239.30781
1116.4449 1252.14857
1116.6030 1239.55357
1116.7612 1258.31296
1116.9193 1238.57054
1117.0774 1249.48621
1117.2355 1250.34636
1117.3936 1251.34987
1117.5516 1246.49618
1117.7097 1252.14857
1117.8677 1246.41426
1118.0257 1255.52772
1118.1837 1249.58861
1118.3417 1257.67809
1118.4997 1257.67809
1118.6577 1250.05965
1118.8156 1248.97422
1118.9735 1248.93326
1119.1315 1246.92625
1119.2894 1260.29949
1119.4472 1244.42773
1119.6051 1250.71500
1119.7630 1242.93271
1119.9208 1262.42938
1120.0786 1239.94268
1120.2364 1255.42532
1120.3942 1243.26039
1120.5520 1253.31592
1120.7098 1254.31942
1120.8675 1260.54525
1121.0253 1259.80798
1121.1830 1253.76647
1121.3407 1248.07312
1121.4984 1253.64359
1121.6560 1251.14507
