# Averages = 100
# wavelength [µm]	intensity
446.8250 14.33578
447.0374 36746.70328
447.2498 1225.81170
447.4621 1219.64731
447.6745 1228.28974
447.8868 1236.31778
448.0992 1246.35282
448.3115 1234.69988
448.5238 1247.41777
448.7360 1245.18548
448.9483 1251.63658
449.1606 1241.62201
449.3728 1272.38250
449.5850 1234.08549
449.7972 1241.58105
450.0094 1236.19490
450.2216 1256.92034
450.4337 1248.48271
450.6459 1680.44028
450.8580 2010.59332
451.0701 2033.96064
451.2822 2040.51414
451.4943 2042.88979
451.7064 2027.57098
451.9184 2021.59091
452.1305 2087.14639
452.3425 2185.51033
452.5545 2122.98585
452.7665 2111.35338
452.9785 2228.29240
453.1905 2266.13886
453.4024 2184.93690
453.6143 2272.77428
453.8263 2263.00547
454.0382 2375.66423
454.2501 2239.24903
454.4619 2229.19350
454.6738 2358.91185
454.8856 2412.48671
455.0975 2274.35122
455.3093 2275.53904
455.5211 2352.82938
455.7329 2323.80966
455.9446 2344.30983
456.1564 2360.69358
456.3681 2426.22858
456.5798 2487.62668
456.7916 2413.16254
457.0033 2420.43283
457.2149 2390.30721
457.4266 2408.08357
457.6382 2462.51858
457.8499 2430.83651
458.0615 2554.77958
458.2731 2459.61047
458.4847 2544.96981
458.6963 2568.25521
458.9078 2588.73490
459.1194 2730.86393
459.3309 2752.26520
459.5424 2602.51773
459.7539 2511.23976
459.9654 2569.91407
460.1769 2614.64170
460.3883 2620.47841
460.5998 2477.57115
460.8112 2453.91712
461.0226 2528.62702
461.2340 2644.09149
461.4454 2574.66535
461.6567 2526.80432
461.8681 2523.46613
462.0794 2478.86137
462.2907 2585.92918
462.5020 2666.39387
462.7133 2769.89821
462.9246 2829.65794
463.1359 2663.28096
463.3471 2434.25662
463.5583 2503.92851
463.7696 2825.93064
463.9808 2695.76175
464.1919 2590.86479
464.4031 2595.86183
464.6143 2740.40746
464.8254 2576.59044
465.0365 2557.93345
465.2476 2664.07967
465.4587 2720.82888
465.6698 2551.85098
465.8809 2521.23385
466.0919 2548.38991
466.3030 2706.22687
466.5140 2673.84848
466.7250 2566.22772
466.9360 2625.65977
467.1469 2565.73621
467.3579 2472.88131
467.5688 2464.99663
467.7798 2571.42956
467.9907 2748.80414
468.2016 2562.27514
468.4125 2549.16814
468.6233 2454.71582
468.8342 2466.63500
469.0450 2727.34142
469.2559 2717.94125
469.4667 2702.00805
469.6775 2479.06617
469.8882 2513.59492
470.0990 2570.07790
470.3098 2721.50471
470.5205 2592.66700
470.7312 2719.04715
470.9419 2827.30278
471.1526 2668.13465
471.3633 2541.26298
471.5739 2596.72198
471.7846 2556.27459
471.9952 2416.60312
472.2058 2482.97779
472.4164 2456.96859
472.6270 2509.00747
472.8376 2540.03420
473.0481 2695.51599
473.2587 2725.70305
473.4692 2656.93226
473.6797 2600.26496
473.8902 2525.82130
474.1007 2448.63336
474.3111 2436.83706
474.5216 2401.55055
474.7320 2507.71725
474.9424 2633.29870
475.1528 2693.07891
475.3632 2525.75986
475.5736 2525.10451
475.7840 2486.27502
475.9943 2497.45693
476.2046 2543.65911
476.4149 2564.11831
476.6252 2651.30034
476.8355 2781.61260
477.0458 2780.38381
477.2561 2827.85573
477.4663 2705.79679
477.6765 2653.65551
477.8867 2604.48378
478.0969 2631.39409
478.3071 2644.70588
478.5173 2592.46220
478.7274 2663.71103
478.9375 2807.66276
479.1477 2798.81553
479.3578 2800.35151
479.5679 2891.48612
479.7779 2755.93107
479.9880 2698.95658
480.1980 2773.54360
480.4081 2834.40923
480.6181 2778.74544
480.8281 2666.51675
481.0381 2791.31997
481.2480 2837.27639
481.4580 2767.46113
481.6679 2757.75376
481.8778 2715.58608
482.0877 2779.99470
482.2976 2817.71828
482.5075 2848.17158
482.7174 2824.74282
482.9272 2827.93765
483.1371 2777.98769
483.3469 2804.30409
483.5567 2883.35568
483.7665 2907.37836
483.9762 2905.51470
484.1860 2879.05495
484.3957 2912.10916
484.6055 2851.63265
484.8152 2900.98869
485.0249 2942.17335
485.2346 2913.82946
485.4442 2931.36007
485.6539 2986.49139
485.8635 2980.10173
486.0732 2925.93295
486.2828 2959.66300
486.4924 2948.87020
486.7019 2941.59991
486.9115 2977.64416
487.1210 3026.50870
487.3306 3032.95980
487.5401 3069.27029
487.7496 3062.06144
487.9591 3143.18148
488.1686 3131.79477
488.3780 3094.21455
488.5875 3104.63871
488.7969 3119.89607
489.0063 3123.48002
489.2157 3165.62722
489.4251 3152.29494
489.6345 3168.37149
489.8438 3174.90451
490.0531 3167.81854
490.2625 3186.25026
490.4718 3165.68865
490.6811 3223.07274
490.8903 3259.34227
491.0996 3274.72251
491.3089 3270.60609
491.5181 3308.10440
491.7273 3312.42562
491.9365 3309.57894
492.1457 3351.11175
492.3549 3352.29957
492.5640 3357.27613
492.7732 3388.79437
492.9823 3391.25193
493.1914 3458.91682
493.4005 3463.21755
493.6096 3438.23234
493.8187 3440.71038
494.0277 3508.86678
494.2368 3502.04704
494.4458 3521.74850
494.6548 3568.48315
494.8638 3604.22020
495.0728 3560.18888
495.2817 3616.54897
495.4907 3586.36192
495.6996 3640.03918
495.9085 3644.81094
496.1174 3688.30980
496.3263 3681.01903
496.5352 3733.50847
496.7440 3732.95552
496.9529 3765.60014
497.1617 3791.97798
497.3705 3763.81841
497.5793 3839.22462
497.7881 3818.21246
497.9969 3870.96813
498.2056 3896.38343
498.4144 3914.77418
498.6231 3937.93671
498.8318 3957.39241
499.0405 4000.03112
499.2492 3937.56808
499.4578 4020.81801
499.6665 4035.89106
499.8751 4091.69820
500.0837 4115.57752
500.2923 4131.67455
500.5009 4114.45114
500.7095 4181.50163
500.9180 4170.29925
501.1266 4238.39421
501.3351 4240.91321
501.5436 4297.04803
501.7521 4280.09085
501.9606 4338.23268
502.1691 4354.35020
502.3775 4380.31844
502.5860 4409.80919
502.7944 4430.63703
503.0028 4482.10249
503.2112 4523.94249
503.4196 4494.67702
503.6279 4601.94962
503.8363 4525.25319
504.0446 4653.64035
504.2529 4671.94919
504.4612 4712.70377
504.6695 4717.82369
504.8778 4733.49065
505.0860 4777.41958
505.2943 4772.85261
505.5025 4873.20308
505.7107 4867.05917
505.9189 4937.61170
506.1271 4970.58399
506.3353 4984.18251
506.5434 4979.57458
506.7516 5047.23946
506.9597 5051.43780
507.1678 5093.70788
507.3759 5153.46760
507.5840 5142.49049
507.7920 5196.31111
508.0001 5199.56738
508.2081 5317.44846
508.4161 5297.23501
508.6241 5365.65765
508.8321 5353.20600
509.0401 5421.40335
509.2480 5463.12048
509.4560 5438.13526
509.6639 5525.70640
509.8718 5561.01338
510.0797 5585.19990
510.2876 5578.99455
510.4955 5746.90751
510.7033 5763.98757
510.9112 5827.51556
511.1190 5823.64490
511.3268 5815.98549
511.5346 5916.52028
511.7424 5919.28504
511.9501 5989.34605
512.1579 6027.31539
512.3656 6080.15298
512.5733 6055.45448
512.7810 6188.92060
512.9887 6237.53938
513.1964 6295.16922
513.4040 6302.07088
513.6117 6353.22914
513.8193 6403.56821
514.0269 6445.36725
514.2345 6510.45170
514.4421 6537.11625
514.6497 6572.64851
514.8572 6645.84291
515.0647 6653.58423
515.2723 6756.65850
515.4798 6777.77306
515.6873 6881.87131
515.8947 6821.76343
516.1022 6878.26688
516.3097 6932.76333
516.5171 7065.12355
516.7245 7056.11249
516.9319 7126.00966
517.1393 7183.92622
517.3467 7252.71749
517.5540 7285.25971
517.7614 7354.07146
517.9687 7332.26060
518.1760 7394.23213
518.3833 7472.56694
518.5906 7476.49904
518.7978 7628.37640
519.0051 7598.29174
519.2123 7734.72742
519.4196 7684.98225
519.6268 7792.62349
519.8340 7844.64190
520.0411 7934.71156
520.2483 8014.19323
520.4554 8029.86019
520.6626 8102.72692
520.8697 8136.88704
521.0768 8261.93601
521.2839 8294.08912
521.4909 8358.17006
521.6980 8516.68284
521.9050 8549.81898
522.1121 8627.31412
522.3191 8678.90245
522.5261 8730.10167
522.7331 8819.08591
522.9400 8969.07914
523.1470 8962.62804
523.3539 9018.68094
523.5608 9082.16798
523.7677 9142.09154
523.9746 9203.55108
524.1815 9276.64309
524.3884 9373.04098
524.5952 9331.38529
524.8020 9532.72110
525.0089 9454.55013
525.2157 9568.88823
525.4225 9646.56768
525.6292 9685.27429
525.8360 9749.76483
526.0427 9865.20883
526.2494 9934.59401
526.4562 10031.52437
526.6629 10006.68251
526.8695 10095.78963
527.0762 10248.40426
527.2829 10232.94210
527.4895 10468.74522
527.6961 10540.01453
527.9027 10596.55895
528.1093 10595.37112
528.3159 10658.98103
528.5224 10724.96659
528.7290 10949.56732
528.9355 10900.47751
529.1420 11140.78616
529.3485 11028.98755
529.5550 11215.39366
529.7615 11217.85123
529.9680 11379.49740
530.1744 11415.80789
530.3808 11534.56959
530.5872 11501.02387
530.7936 11609.46381
531.0000 11681.30655
531.2064 11776.45518
531.4127 11818.49998
531.6191 11947.56297
531.8254 11960.48565
532.0317 12095.63111
532.2380 12105.50232
532.4443 12297.13076
532.6505 12117.42150
532.8568 12364.05838
533.0630 12542.00638
533.2692 12520.66655
533.4754 12639.03914
533.6816 12810.67940
533.8878 12821.14452
534.0939 12988.72980
534.3001 12988.93460
534.5062 13072.59413
534.7123 13140.27949
534.9184 13155.88501
535.1245 13178.39219
535.3306 13288.20427
535.5366 13426.15545
535.7426 13557.94224
535.9487 13741.70647
536.1547 13577.66418
536.3607 13714.83712
536.5666 13740.23194
536.7726 13863.78589
536.9785 13947.11774
537.1845 14150.89063
537.3904 14061.92687
537.5963 14208.95055
537.8022 14294.28940
538.0080 14463.24682
538.2139 14504.47244
538.4197 14625.11828
538.6256 14627.86255
538.8314 14722.11008
539.0372 14761.82019
539.2430 14997.99195
539.4487 14731.46929
539.6545 15092.50570
539.8602 15016.52606
540.0659 15143.37725
540.2716 15417.39547
540.4773 15391.44770
540.6830 15636.93772
540.8887 15650.57719
541.0943 15557.96804
541.2999 15565.89368
541.5056 15628.45912
541.7112 15771.42782
541.9167 15704.43877
542.1223 15928.58895
542.3279 15966.70164
542.5334 16029.73812
542.7389 16279.56983
542.9444 16361.44762
543.1499 16424.44314
543.3554 16355.91810
543.5609 16556.80336
543.7663 16676.11802
543.9718 16528.62331
544.1772 16775.99745
544.3826 16735.98015
544.5880 17036.35572
544.7934 17025.70628
544.9987 17082.92653
545.2041 17382.85155
545.4094 17215.04100
545.6147 17295.60809
545.8200 17482.09612
546.0253 17532.16896
546.2306 17654.96516
546.4358 17570.52741
546.6411 17773.78831
546.8463 17728.75348
547.0515 18006.19180
547.2567 17994.23167
547.4619 18125.09687
547.6670 18245.31263
547.8722 18250.16632
548.0773 18526.13011
548.2824 18399.36084
548.4876 18405.32043
548.6926 18604.83355
548.8977 18755.33877
549.1028 18937.28032
549.3078 18928.92460
549.5129 18940.80282
549.7179 18983.58489
549.9229 19070.62356
550.1279 19012.62509
550.3328 19098.08682
550.5378 18960.29948
550.7427 19176.05299
550.9476 19221.02639
551.1526 18940.02459
551.3575 19307.30731
551.5623 19280.19220
551.7672 19195.93877
551.9720 19339.54234
552.1769 19316.19549
552.3817 19532.07188
552.5865 19356.43808
552.7913 19485.52155
552.9961 19361.51704
553.2008 19479.04997
553.4056 19704.01934
553.6103 19571.76151
553.8150 19828.90447
554.0197 19834.82310
554.2244 19746.90380
554.4291 19639.52880
554.6337 19852.94762
554.8384 19869.88433
555.0430 19837.66978
555.2476 19758.20859
555.4522 19633.77401
555.6568 19725.50253
555.8613 19801.56409
556.0659 19979.40969
556.2704 19722.57393
556.4750 19889.79058
556.6795 19921.61602
556.8839 19747.88683
557.0884 19954.67023
557.2929 19949.63223
557.4973 19838.79616
557.7018 19816.06371
557.9062 19789.03052
558.1106 19790.30026
558.3150 19747.35435
558.5193 19872.40333
558.7237 19856.79780
558.9280 19678.95220
559.1323 19638.46386
559.3367 19627.54818
559.5410 19629.24800
559.7452 19307.16395
559.9495 19651.36606
560.1537 19584.72516
560.3580 19522.52835
560.5622 19704.14221
560.7664 19688.98725
560.9706 19558.24492
561.1748 19673.19741
561.3789 19670.65792
561.5831 19603.30023
561.7872 19599.69581
561.9913 19609.95613
562.1954 19504.60862
562.3995 19568.34141
562.6036 19487.73336
562.8076 19278.67671
563.0117 19497.09257
563.2157 19416.56644
563.4197 19529.22520
563.6237 19434.56809
563.8277 19244.06603
564.0316 19062.34977
564.2356 19223.23819
564.4395 19184.77734
564.6434 19111.68533
564.8473 19245.06954
565.0512 19140.52073
565.2551 19145.23106
565.4590 19180.55852
565.6628 19175.02901
565.8666 19174.16886
566.0705 19072.40529
566.2743 18897.30397
566.4780 18874.91967
566.6818 18836.54073
566.8856 18935.31427
567.0893 18725.97090
567.2930 18714.35892
567.4967 18574.01162
567.7004 18623.51102
567.9041 18728.42846
568.1078 18606.28761
568.3114 18539.52383
568.5151 18545.03286
568.7187 18127.45203
568.9223 18344.45480
569.1259 18288.60669
569.3295 18454.47168
569.5330 18339.02768
569.7366 18198.74182
569.9401 18246.17278
570.1436 18186.26970
570.3471 18348.77602
570.5506 18223.25601
570.7541 18079.36573
570.9575 18089.68749
571.1609 17894.88470
571.3644 18005.92557
571.5678 17918.39538
571.7712 17962.75439
571.9746 17857.73455
572.1779 17645.27827
572.3813 17503.00588
572.5846 17709.01106
572.7879 17566.34955
572.9912 17716.40422
573.1945 17556.90842
573.3978 17392.55893
573.6010 17376.72813
573.8043 17508.92451
574.0075 17124.35694
574.2107 17137.87353
574.4139 16984.91075
574.6171 16970.10393
574.8203 16646.07432
575.0234 16723.97905
575.2266 16434.68298
575.4297 16436.42376
575.6328 16391.40940
575.8359 16324.87090
576.0390 15920.33563
576.2420 15939.52510
576.4451 15643.47074
576.6481 15705.93378
576.8512 15887.91629
577.0542 15439.65689
577.2571 15532.59371
577.4601 15390.46468
577.6631 15164.49180
577.8660 15057.56736
578.0689 14790.14360
578.2719 14795.38640
578.4748 14742.42592
578.6776 14518.60342
578.8805 14401.02953
579.0834 14249.43889
579.2862 14269.69330
579.4890 14261.15327
579.6918 14238.03170
579.8946 13850.26930
580.0974 13895.05838
580.3002 13715.08288
580.5029 13514.23859
580.7057 13571.45883
580.9084 13274.72864
581.1111 13334.52933
581.3138 13119.77933
581.5164 13010.19252
581.7191 12823.04913
581.9217 12752.96764
582.1244 12592.67313
582.3270 12468.40238
582.5296 12460.86586
582.7322 12410.03528
582.9347 12265.67396
583.1373 12101.40638
583.3398 12022.80534
583.5424 11916.47481
583.7449 11783.17252
583.9474 11671.02575
584.1498 11499.89748
584.3523 11528.69192
584.5548 11330.69430
584.7572 11233.60011
584.9596 11222.74587
585.1620 11222.07004
585.3644 10943.62821
585.5668 10822.04031
585.7691 10839.16132
585.9715 10675.26239
586.1738 10664.85870
586.3761 10519.86252
586.5784 10514.80403
586.7807 10455.63822
586.9830 10324.89589
587.1852 10176.17240
587.3875 10059.49962
587.5897 10075.00275
587.7919 9944.30138
587.9941 9770.22404
588.1963 9710.48479
588.3984 9610.97399
588.6006 9475.78757
588.8027 9535.07626
589.0048 9385.94318
589.2069 9327.08456
589.4090 9314.34619
589.6111 9267.38627
589.8131 9195.40017
590.0152 9161.46532
590.2172 8949.33672
590.4192 9020.85179
590.6212 8855.82647
590.8232 8701.49154
591.0252 8764.65090
591.2271 8680.43842
591.4291 8628.39954
591.6310 8519.50904
591.8329 8450.08290
592.0348 8412.64603
592.2367 8323.74371
592.4385 8289.52215
592.6404 8301.62565
592.8422 8237.40135
593.0440 8190.19567
593.2458 8188.04530
593.4476 8097.62748
593.6494 8059.67862
593.8512 8042.76240
594.0529 7975.69142
594.2546 7942.26857
594.4563 7873.86641
594.6580 7778.92258
594.8597 7721.98905
595.0614 7676.09407
595.2630 7693.44037
595.4647 7606.91369
595.6663 7507.42336
595.8679 7510.74107
596.0695 7515.51284
596.2711 7433.51217
596.4727 7385.30299
596.6742 7373.77292
596.8757 7366.33880
597.0773 7339.63328
597.2788 7227.54795
597.4802 7238.03355
597.6817 7257.61214
597.8832 7173.99357
598.0846 7151.03584
598.2860 7089.22815
598.4875 7017.48780
598.6889 7040.95752
598.8902 7011.22102
599.0916 6988.48856
599.2930 6931.43215
599.4943 6958.11719
599.6956 6920.10689
599.8969 6865.99955
600.0982 6838.70013
600.2995 6781.68468
600.5008 6842.95990
600.7020 6766.34539
600.9032 6772.89889
601.1045 6750.47363
601.3057 6699.80689
601.5068 6724.28011
601.7080 6734.25372
601.9092 6690.77535
602.1103 6750.96515
602.3115 6706.07367
602.5126 6720.45041
602.7137 6653.13368
602.9147 6649.11966
603.1158 6667.12131
603.3169 6677.19731
603.5179 6701.62958
603.7189 6643.24199
603.9199 6681.55949
604.1209 6641.60362
604.3219 6653.48183
604.5229 6681.14989
604.7238 6686.61797
604.9247 6686.47461
605.1257 6710.08769
605.3266 6730.15778
605.5275 6686.80229
605.7283 6735.89210
605.9292 6790.28615
606.1300 6677.32019
606.3309 6729.93251
606.5317 6766.75499
606.7325 6832.74054
606.9332 6869.33774
607.1340 6889.59215
607.3348 6856.74273
607.5355 6844.16820
607.7362 6953.55022
607.9369 6902.53531
608.1376 6972.94448
608.3383 7025.22912
608.5390 7065.22595
608.7396 7072.06617
608.9402 7146.44839
609.1409 7185.23692
609.3415 7143.66315
609.5421 7188.14504
609.7426 7234.01954
609.9432 7247.53613
610.1437 7244.68945
610.3443 7430.74741
610.5448 7403.63231
610.7453 7472.34166
610.9457 7485.83777
611.1462 7528.55840
611.3467 7570.09121
611.5471 7670.40072
611.7475 7632.57473
611.9479 7793.03309
612.1483 7706.75216
612.3487 7902.88613
612.5491 7860.63653
612.7494 8097.38172
612.9497 8019.21075
613.1501 8134.57283
613.3504 8150.19884
613.5506 8348.56509
613.7509 8334.29075
613.9512 8358.68205
614.1514 8408.98017
614.3516 8542.54869
614.5519 8546.41935
614.7521 8687.97495
614.9522 8716.85131
615.1524 8768.52156
615.3526 8879.39859
615.5527 9042.02779
615.7528 9022.08057
615.9529 9105.02331
616.1530 9276.88884
616.3531 9422.70422
616.5532 9533.94988
616.7532 9499.62592
616.9532 9582.81442
617.1533 9587.58618
617.3533 9715.03128
617.5532 9757.15800
617.7532 9884.02966
617.9532 9913.39753
618.1531 10138.28498
618.3530 10074.49075
618.5530 10236.62844
618.7528 10385.78200
618.9527 10488.54907
619.1526 10511.97784
619.3524 10543.16840
619.5523 10662.99505
619.7521 10770.65677
619.9519 10924.82786
620.1517 11048.83237
620.3515 11206.87411
620.5512 11289.07958
620.7510 11324.95999
620.9507 11421.82891
621.1504 11418.28593
621.3501 11594.14500
621.5498 11826.83521
621.7495 11849.19903
621.9492 12037.14113
622.1488 11966.58860
622.3484 12167.04378
622.5480 12223.28100
622.7476 12541.51487
622.9472 12442.53654
623.1468 12503.75032
623.3463 12993.72685
623.5459 13052.23732
623.7454 13062.06757
623.9449 13162.25420
624.1444 13315.05315
624.3439 13470.47349
624.5433 13503.52771
624.7428 13685.30542
624.9422 13690.75301
625.1416 13753.19558
625.3410 13834.02891
625.5404 14130.73862
625.7398 14197.21568
625.9391 14361.85189
626.1385 14284.09052
626.3378 14449.58687
626.5371 14821.47752
626.7364 14671.15661
626.9357 14815.78417
627.1350 14948.24678
627.3342 15081.50811
627.5335 15145.32282
627.7327 15338.73299
627.9319 15429.29416
628.1311 15855.39454
628.3303 15731.51291
628.5294 15819.47317
628.7286 16048.86615
628.9277 16289.03145
629.1268 16360.42364
629.3259 16578.02032
629.5250 16697.31450
629.7241 16803.11256
629.9231 16595.44853
630.1222 17074.01787
630.3212 17170.68199
630.5202 17133.49088
630.7192 17401.50855
630.9182 17396.61390
631.1171 17532.12800
631.3161 17657.60704
631.5150 17597.76540
631.7140 17863.67366
631.9129 18095.21700
632.1118 18265.73088
632.3106 18370.03393
632.5095 18507.92367
632.7083 18455.16799
632.9072 18665.74014
633.1060 18785.36199
633.3048 18709.44379
633.5036 18850.73316
633.7023 19115.69935
633.9011 19455.74408
634.0998 19724.35567
634.2986 19593.18327
634.4973 19876.74502
634.6960 19850.08047
634.8947 19984.38626
635.0933 20064.09320
635.2920 20213.73828
635.4906 20177.42779
635.6892 20498.24210
635.8878 20652.90470
636.0864 20914.59414
636.2850 20784.34333
636.4836 20947.46404
636.6821 20941.77069
636.8806 21284.94881
637.0792 21450.97764
637.2777 21515.42722
637.4761 21515.85729
637.6746 21723.93091
637.8731 22091.58226
638.0715 21960.32795
638.2699 22203.68807
638.4683 22235.77974
638.6667 22171.39161
638.8651 22377.45822
639.0635 22576.43887
639.2618 22691.98526
639.4602 22823.09622
639.6585 22771.67173
639.8568 23114.50170
640.0551 23135.51385
640.2534 23129.30851
640.4516 23438.63371
640.6499 23516.27220
640.8481 23895.67890
641.0463 23970.28640
641.2445 24248.27768
641.4427 24100.57817
641.6409 24250.10037
641.8390 24302.93796
642.0372 24538.14717
642.2353 24492.96898
642.4334 24571.54954
642.6315 24775.60915
642.8296 24765.84034
643.0277 24702.74242
643.2257 25340.17269
643.4237 25329.83045
643.6218 25232.20378
643.8198 25424.75380
644.0178 25616.50512
644.2157 25514.96683
644.4137 25638.56174
644.6116 26411.28083
644.8096 26543.00618
645.0075 26086.26819
645.2054 26428.31993
645.4033 26385.23067
645.6011 26419.26791
645.7990 26412.10002
645.9968 26796.70855
646.1947 26908.01565
646.3925 27153.97670
646.5903 26909.67450
646.7881 27316.11438
646.9858 27123.74868
647.1836 27114.67618
647.3813 27065.93452
647.5790 27227.27350
647.7767 27959.81144
647.9744 27528.91882
648.1721 27772.40182
648.3698 28195.18449
648.5674 27825.58757
648.7650 28148.81848
648.9627 28060.10047
649.1603 28858.78780
649.3578 28752.55966
649.5554 28912.46506
649.7530 29059.18155
649.9505 28714.89752
650.1480 29050.27288
650.3455 29127.58370
650.5430 28769.47589
650.7405 29034.95408
650.9380 29205.87755
651.1354 29470.27031
651.3329 29414.42220
651.5303 29870.11573
651.7277 29874.55982
651.9251 29869.66518
652.1225 29771.75179
652.3198 29799.99328
652.5172 30098.99672
652.7145 30422.14571
652.9118 30420.56877
653.1091 30597.69759
653.3064 30632.71785
653.5037 30587.45775
653.7009 30378.11438
653.8982 30767.28988
654.0954 31228.84060
654.2926 31320.91727
654.4898 31305.74182
654.6870 31360.48403
654.8841 31736.77781
655.0813 31500.76989
655.2784 31930.47469
655.4755 31931.37580
655.6726 32150.44702
655.8697 31748.02116
656.0668 32231.03459
656.2639 32150.34462
656.4609 32028.69527
656.6579 32327.20720
656.8550 32502.69764
657.0520 32428.82741
657.2490 32066.43934
657.4459 32758.05886
657.6429 32877.76264
657.8398 32715.87071
658.0367 33122.22867
658.2337 32969.61404
658.4305 33233.69961
658.6274 33360.05928
658.8243 33348.73401
659.0211 33482.32301
659.2180 33482.50733
659.4148 33616.01441
659.6116 33745.63035
659.8084 33931.99551
660.0052 34104.14776
660.2019 34060.48507
660.3987 33875.00054
660.5954 34221.98789
660.7921 34312.42619
660.9888 34094.46087
661.1855 34407.49290
661.3822 34456.25503
661.5788 34575.59017
661.7755 34524.96438
661.9721 34494.67492
662.1687 34801.68592
662.3653 34721.67178
662.5619 34923.47862
662.7584 34800.84625
662.9550 34972.79371
663.1515 35285.74381
663.3480 35178.83985
663.5445 35426.48023
663.7410 35121.74248
663.9375 35471.59698
664.1340 35492.09715
664.3304 35655.19738
664.5268 35564.32900
664.7233 35988.07422
664.9197 35844.61401
665.1160 36115.60123
665.3124 35820.75517
665.5088 36118.50935
665.7051 36050.98782
665.9014 35918.40232
666.0977 35923.76800
666.2940 35926.81947
666.4903 36197.78622
666.6866 36469.75647
666.8828 36080.27377
667.0791 36404.26243
667.2753 36853.97588
667.4715 36966.14313
667.6677 37325.54117
667.8639 37391.58816
668.0600 36771.87282
668.2562 36977.59128
668.4523 36990.10437
668.6484 37313.60151
668.8445 36821.45414
669.0406 37619.38372
669.2367 37527.18417
669.4327 37819.20404
669.6287 37657.55786
669.8248 37512.43880
670.0208 37592.84205
670.2168 37487.22830
670.4128 37804.11051
670.6087 37742.81480
670.8047 37836.98040
671.0006 38191.40188
671.1965 37502.01464
671.3924 37875.66653
671.5883 37709.55579
671.7842 38099.59144
671.9801 37465.56079
672.1759 37952.32200
672.3717 37761.06220
672.5675 38789.44971
672.7633 38276.33114
672.9591 38860.90334
673.1549 38992.85397
673.3506 38862.21404
673.5464 38571.21816
673.7421 38795.10210
673.9378 38896.88615
674.1335 38565.21761
674.3292 38958.63241
674.5249 38692.92894
674.7205 38062.70752
674.9161 38540.62151
675.1118 38380.01980
675.3074 38392.28713
675.5030 38488.60310
675.6985 38946.24220
675.8941 38935.87948
676.0896 38983.12612
676.2852 38945.56637
676.4807 38796.10561
676.6762 38939.09479
676.8717 39333.51309
677.0671 39519.53009
677.2626 39717.85538
677.4580 39484.01831
677.6534 39517.72788
677.8489 39201.54198
678.0442 39304.75961
678.2396 38981.46726
678.4350 39487.21314
678.6303 39198.81818
678.8257 39440.78569
679.0210 39634.72833
679.2163 39437.42702
679.4116 39589.26343
679.6069 39300.02880
679.8021 38746.33997
679.9974 39198.57243
680.1926 39304.30905
680.3878 39252.29065
680.5830 39397.71691
680.7782 39354.52525
680.9734 39217.92573
681.1685 39300.88895
681.3636 39174.52928
681.5588 39580.53908
681.7539 39414.12114
681.9490 39382.33666
682.1441 39344.71548
682.3391 39087.22437
682.5342 39719.53472
682.7292 39865.04290
682.9242 40039.20216
683.1192 39885.60450
683.3142 40128.00209
683.5092 40288.43996
683.7041 40520.06522
683.8991 40124.45910
684.0940 39974.17915
684.2889 39589.79590
684.4838 39998.01751
684.6787 39828.60953
684.8736 39337.54759
685.0684 39844.15362
685.2633 39803.13280
685.4581 40062.91764
685.6529 40418.67029
685.8477 40674.23631
686.0425 40461.04276
686.2372 40247.86970
686.4320 39983.39501
686.6267 39935.10391
686.8214 40243.26177
687.0161 40020.83188
687.2108 40401.71311
687.4055 40423.36014
687.6002 40383.01515
687.7948 40427.04648
687.9894 40586.54229
688.1841 40482.46452
688.3787 40571.69452
688.5732 40500.77336
688.7678 40478.02043
688.9624 40199.70147
689.1569 40452.25698
689.3514 39989.68228
689.5459 39733.41995
689.7404 40279.22410
689.9349 40013.64351
690.1294 40280.86247
690.3238 40253.09202
690.5182 40278.83498
690.7127 40300.97353
690.9071 40396.40887
691.1015 40250.71637
691.2958 40570.87533
691.4902 40346.92995
691.6845 41181.90728
691.8789 40591.10926
692.0732 40622.93469
692.2675 40391.10463
692.4618 40811.20446
692.6560 40640.24003
692.8503 41174.75987
693.0445 40923.10547
693.2387 40269.94680
693.4329 40818.04468
693.6271 40708.82650
693.8213 40827.28102
694.0155 40965.64178
694.2096 40821.64910
694.4038 40375.74487
694.5979 40468.35401
694.7920 40520.92537
694.9861 40407.81606
695.1801 40462.06675
695.3742 40262.65603
695.5682 40386.78342
695.7623 40530.96042
695.9563 40458.42136
696.1503 40720.00841
696.3443 40072.66597
696.5382 40775.52885
696.7322 40548.02000
696.9261 40847.65830
697.1201 40228.68023
697.3140 40456.10716
697.5079 40813.86682
697.7017 40218.56326
697.8956 40115.61187
698.0894 40266.71101
698.2833 40508.51468
698.4771 40740.65194
698.6709 41021.75613
698.8647 40689.26840
699.0585 41161.32520
699.2522 40408.88100
699.4460 40373.22586
699.6397 40655.21068
699.8334 40166.87253
700.0271 40650.60275
700.2208 40913.58242
700.4144 41095.93356
700.6081 41149.26266
700.8017 40660.63780
700.9954 40931.85030
701.1890 40565.40725
701.3826 40392.72253
701.5761 40431.94113
701.7697 40433.08799
701.9632 40096.60673
702.1568 40616.56551
702.3503 40512.67206
702.5438 40405.13322
702.7373 39598.11065
702.9308 40424.17933
703.1242 40446.11307
703.3177 40209.18357
703.5111 40416.82712
703.7045 40564.38327
703.8979 40840.77713
704.0913 41120.46822
704.2847 41160.21930
704.4780 40991.77387
704.6713 40360.52846
704.8647 40524.22260
705.0580 40357.45650
705.2513 40188.78580
705.4445 40367.45059
705.6378 40381.02862
705.8311 39696.35171
706.0243 39711.03565
706.2175 40237.91657
706.4107 40168.49043
706.6039 40532.82407
706.7971 40462.55826
706.9902 40455.26749
707.1834 40520.59770
707.3765 40112.00745
707.5696 39852.30453
707.7627 40121.12091
707.9558 40133.57256
708.1489 39783.20607
708.3419 39515.06552
708.5349 39690.74028
708.7280 39642.44918
708.9210 40341.03180
709.1140 40374.94616
709.3069 39917.47090
709.4999 39609.66120
709.6929 40118.86815
709.8858 39677.59232
710.0787 39884.51908
710.2716 39342.13504
710.4645 39843.98978
710.6574 39713.82089
710.8502 39984.05036
711.0431 39214.25987
711.2359 39357.08521
711.4287 39234.30948
711.6215 39508.32770
711.8143 39322.22878
712.0071 39276.51812
712.1998 39586.68299
712.3925 39368.00088
712.5853 39786.91289
712.7780 39649.65803
712.9707 39435.97297
713.1633 39443.40709
713.3560 39884.88772
713.5487 39588.85383
713.7413 39826.27485
713.9339 39815.23630
714.1265 39578.83927
714.3191 39526.82086
714.5117 39168.89736
714.7042 39656.53920
714.8968 39917.16370
715.0893 40506.20048
715.2818 40257.08556
715.4743 40180.40961
715.6668 39606.65068
715.8592 39705.42421
716.0517 39715.86885
716.2441 39918.14673
716.4366 39433.02389
716.6290 39644.86578
716.8214 39815.93261
717.0137 39926.85060
717.2061 39834.20049
717.3984 39756.33672
717.5908 39408.10011
717.7831 39257.86112
717.9754 39708.25041
718.1677 38819.30910
718.3600 39175.77854
718.5522 39071.94652
718.7445 39222.75894
718.9367 38928.75255
719.1289 39231.38089
719.3211 38871.38894
719.5133 38837.53602
719.7054 38897.62342
719.8976 39170.28998
720.0897 39020.35819
720.2818 39228.02222
720.4740 39276.66148
720.6660 39101.70351
720.8581 39050.38141
721.0502 38993.61172
721.2422 38978.51819
721.4343 39208.93515
721.6263 39392.47411
721.8183 39390.26230
722.0103 39423.17316
722.2022 39116.16217
722.3942 39418.33995
722.5861 38862.52124
722.7781 39394.01009
722.9700 39575.62395
723.1619 39327.59446
723.3538 38870.01680
723.5456 38734.11360
723.7375 39015.11539
723.9293 38991.87094
724.1211 38678.67508
724.3129 38487.98871
724.5047 38371.74600
724.6965 38742.20307
724.8883 38670.31937
725.0800 38901.80128
725.2718 38613.57015
725.4635 38704.33613
725.6552 38296.38075
725.8469 38799.01372
726.0385 39117.96438
726.2302 38732.14755
726.4218 38066.76250
726.6135 38175.01813
726.8051 38149.07036
726.9967 38194.69911
727.1882 38550.94327
727.3798 38967.35676
727.5714 38641.15629
727.7629 38753.34402
727.9544 38676.81143
728.1459 38341.00599
728.3374 38279.05494
728.5289 38824.24470
728.7204 38380.98234
728.9118 38869.85296
729.1032 39150.17893
729.2946 39167.25899
729.4860 38139.28107
729.6774 38381.59673
729.8688 38483.89277
730.0602 38275.24572
730.2515 38148.84509
730.4428 38439.47233
730.6341 38137.08975
730.8254 37964.65078
731.0167 38610.41628
731.2080 38268.30310
731.3992 38460.58689
731.5905 38559.91337
731.7817 38324.90896
731.9729 37897.70268
732.1641 38230.86623
732.3553 37930.73641
732.5464 38477.13448
732.7376 38487.92727
732.9287 38432.34540
733.1198 38448.70867
733.3109 38409.28527
733.5020 38292.81729
733.6931 38461.93855
733.8841 38145.22018
734.0752 38379.93788
734.2662 38167.64544
734.4572 38076.83850
734.6482 37682.33828
734.8392 37736.81425
735.0302 37622.29184
735.2211 37738.51407
735.4120 37577.58468
735.6030 37970.69228
735.7939 37832.57727
735.9848 37783.36458
736.1756 37639.74053
736.3665 37405.76010
736.5574 37194.90124
736.7482 37755.24597
736.9390 37536.97346
737.1298 37819.73651
737.3206 37747.34081
737.5114 37894.26209
737.7021 37633.39183
737.8929 37658.06985
738.0836 37550.44910
738.2743 37791.41310
738.4650 37613.21934
738.6557 37179.97155
738.8463 37271.67959
739.0370 37268.77148
739.2276 36991.70178
739.4182 36778.81543
739.6088 37293.03990
739.7994 36799.00840
739.9900 36978.98390
740.1806 37174.09388
740.3711 37296.72625
740.5617 37429.70086
740.7522 37167.35606
740.9427 37030.26503
741.1332 37053.01797
741.3236 37077.18400
741.5141 37198.89478
741.7045 37435.51709
741.8949 37446.71948
742.0854 36950.59905
742.2758 37536.93250
742.4661 37041.59030
742.6565 36762.08353
742.8469 36855.34802
743.0372 36782.13314
743.2275 36272.33228
743.4178 36535.16859
743.6081 36707.11605
743.7984 36508.66787
743.9886 36574.59199
744.1789 36508.68835
744.3691 36435.78067
744.5593 36494.70073
744.7495 36146.89419
744.9397 36162.74547
745.1299 36097.96822
745.3200 35755.71168
745.5102 36031.12252
745.7003 36152.09603
745.8904 36161.25045
746.0805 36447.29025
746.2706 36349.66358
746.4607 36681.96699
746.6507 36664.17014
746.8408 36242.06330
747.0308 36525.60457
747.2208 36018.75279
747.4108 36204.13492
747.6007 35937.83754
747.7907 36402.27590
747.9806 36310.26066
748.1706 36270.87822
748.3605 36393.51059
748.5504 36134.74974
748.7403 36382.22628
748.9302 35947.11484
749.1200 36017.29873
749.3098 36160.88182
749.4997 35870.78705
749.6895 35769.80171
749.8793 35759.47995
750.0691 36374.81264
750.2588 36212.47015
750.4486 35885.61434
750.6383 35894.07245
750.8280 35366.74098
751.0177 35256.78554
751.2074 35356.23490
751.3971 35293.85377
751.5868 35459.45252
751.7764 35035.13388
751.9660 34794.62043
752.1557 35081.47941
752.3453 35711.61892
752.5348 35573.27863
752.7244 35574.07733
752.9140 35601.31532
753.1035 35754.72866
753.2930 35510.54934
753.4825 35420.04960
753.6720 35171.91771
753.8615 35316.66814
754.0510 35173.47417
754.2404 35163.17288
754.4299 35426.11159
754.6193 35326.21168
754.8087 35131.81848
754.9981 35246.58665
755.1875 34816.49273
755.3768 34641.63716
755.5662 34915.57346
755.7555 34933.28839
755.9448 35438.70660
756.1341 35119.89930
756.3234 34540.32415
756.5127 34717.88304
756.7019 34885.12017
756.8912 35002.91933
757.0804 34909.90059
757.2696 34753.68153
757.4588 34513.08616
757.6480 34346.48391
757.8371 34226.26814
758.0263 34119.48705
758.2154 33746.47002
758.4045 33557.07387
758.5936 33468.33539
758.7827 34064.62197
758.9718 34303.10793
759.1609 34116.27174
759.3499 33895.72598
759.5389 33239.98687
759.7280 33389.09947
759.9170 33782.69859
760.1059 33957.71800
760.2949 33922.06286
760.4839 33790.84950
760.6728 33968.73607
760.8617 33842.39688
761.0506 33415.17012
761.2395 33360.83751
761.4284 33219.38430
761.6173 33184.05684
761.8061 33267.47061
761.9950 33275.51913
762.1838 33119.30007
762.3726 33371.07735
762.5614 32850.34034
762.7502 33478.24755
762.9389 33190.38507
763.1277 32959.00556
763.3164 33272.05806
763.5051 33242.71067
763.6938 33381.01000
763.8825 33213.73191
764.0712 33695.39368
764.2598 33333.43568
764.4484 33669.63023
764.6371 33609.21516
764.8257 33330.99860
765.0143 33627.48304
765.2029 33306.23866
765.3914 33711.10160
765.5800 33862.52841
765.7685 33360.01832
765.9570 33146.27182
766.1455 32882.90304
766.3340 32883.98846
766.5225 32977.88783
766.7110 32894.02351
766.8994 32718.08251
767.0878 32518.24172
767.2762 32670.75396
767.4646 32467.20634
767.6530 32568.68319
767.8414 32744.80851
768.0298 32538.72141
768.2181 32692.64674
768.4064 32643.02446
768.5947 32603.88778
768.7830 32250.38789
768.9713 32260.27958
769.1596 32000.55618
769.3478 31970.86064
769.5360 32074.18066
769.7243 31837.37403
769.9125 31557.72390
770.1007 31441.17400
770.2888 31435.68544
770.4770 31305.12743
770.6651 31331.40287
770.8533 31189.13048
771.0414 31136.86632
771.2295 31191.42421
771.4176 31497.10403
771.6056 31672.14391
771.7937 31318.13204
771.9817 30986.44302
772.1698 31374.00062
772.3578 31265.76548
772.5458 31130.08755
772.7337 30848.53280
772.9217 31058.34720
773.1096 30975.65022
773.2976 31234.08340
773.4855 31408.79561
773.6734 31074.73095
773.8613 31196.27790
774.0492 30893.58811
774.2370 30867.18980
774.4249 31354.21725
774.6127 31532.73868
774.8005 31307.44164
774.9883 31211.06423
775.1761 31276.82451
775.3639 30774.94928
775.5516 30969.71111
775.7394 30589.46475
775.9271 30491.42849
776.1148 30425.83205
776.3025 29766.83667
776.4902 30016.27926
776.6778 29895.12143
776.8655 30206.02357
777.0531 30635.74885
777.2407 30457.06358
777.4283 29973.21048
777.6159 30345.65407
777.8035 30185.11380
777.9911 29721.59704
778.1786 30204.50807
778.3661 30026.76486
778.5536 30009.13185
778.7411 30381.59593
778.9286 30588.48173
779.1161 30336.06958
779.3036 29819.77666
779.4910 29822.50046
779.6784 29791.06414
779.8658 30068.07239
780.0532 29791.04366
780.2406 29912.81588
780.4280 29337.86913
780.6153 29658.64248
780.8026 29778.77632
780.9900 29800.54623
781.1773 29465.39615
781.3646 29684.20113
781.5518 29414.11501
781.7391 29716.62047
781.9263 29254.33249
782.1136 29170.26337
782.3008 28927.27188
782.4880 29045.72639
782.6752 28996.39082
782.8623 29009.64118
783.0495 29152.52796
783.2366 28782.13233
783.4237 28855.96161
783.6108 29185.80745
783.7979 28921.25085
783.9850 28939.53921
784.1721 29290.49962
784.3591 28810.16903
784.5462 28823.76754
784.7332 28905.58389
784.9202 28938.47427
785.1072 28731.36319
785.2941 28797.84025
785.4811 28517.43237
785.6681 28619.66697
785.8550 28671.86970
786.0419 28560.13252
786.2288 28322.48623
786.4157 28039.80510
786.6025 28173.51698
786.7894 28250.19293
786.9762 28234.50549
787.1631 27867.50949
787.3499 28282.65323
787.5367 28226.41601
787.7234 27821.79883
787.9102 27879.46963
788.0970 27865.29768
788.2837 28112.46703
788.4704 27694.18989
788.6571 27533.83394
788.8438 27603.17816
789.0305 27451.75135
789.2171 27424.06282
789.4038 27217.36133
789.5904 27236.42792
789.7770 27282.44578
789.9636 27226.45431
790.1502 27549.72618
790.3368 27495.02493
790.5233 27341.14056
790.7099 27279.45574
790.8964 26853.82640
791.0829 26583.74028
791.2694 26553.12315
791.4559 26501.18666
791.6423 26522.44457
791.8288 26560.65967
792.0152 26792.48973
792.2016 26809.03732
792.3880 26887.96604
792.5744 26553.38938
792.7608 26217.95258
792.9471 26440.13671
793.1335 26800.94784
793.3198 26480.76841
793.5061 26540.01615
793.6924 26059.11212
793.8787 26090.99900
794.0650 26055.63058
794.2512 26234.93024
794.4375 26443.94593
794.6237 26565.14472
794.8099 26437.14667
794.9961 25963.28767
795.1823 25921.30431
795.3684 26006.68412
795.5546 25685.68550
795.7407 25824.29203
795.9268 25484.65689
796.1129 25616.36176
796.2990 26122.86539
796.4851 26446.42397
796.6712 26087.74273
796.8572 25741.73841
797.0432 25607.65789
797.2292 25892.42795
797.4152 25792.73283
797.6012 25215.92243
797.7872 25179.18187
797.9731 25381.45974
798.1591 25078.38085
798.3450 25037.99490
798.5309 25359.13688
798.7168 25421.43609
798.9027 25404.68371
799.0885 25284.65226
799.2744 25146.63965
799.4602 25503.64156
799.6460 25430.57003
799.8318 25735.04155
800.0176 25366.65293
800.2034 25356.41309
800.3892 24867.52199
800.5749 24747.44958
800.7606 24818.10450
800.9463 24838.44083
801.1320 24859.30963
801.3177 24939.42617
801.5034 24956.81342
801.6890 25089.82899
801.8747 24749.80474
802.0603 24351.98681
802.2459 24330.09403
802.4315 24305.88704
802.6171 24117.28959
802.8026 24420.65520
802.9882 24414.44986
803.1737 24072.82819
803.3592 24336.38129
803.5447 24496.34813
803.7302 24530.52873
803.9157 24427.78214
804.1012 24490.79813
804.2866 23996.99191
804.4720 24156.03716
804.6574 23976.55318
804.8428 23755.04488
805.0282 23715.76484
805.2136 23791.88784
805.3989 24069.87912
805.5843 23730.53070
805.7696 23682.71062
805.9549 23572.71422
806.1402 23497.06226
806.3255 23334.49450
806.5107 23460.79273
806.6960 23774.64394
806.8812 23415.34830
807.0664 23516.39508
807.2516 23122.12014
807.4368 23008.70363
807.6220 23017.32558
807.8072 22942.61568
807.9923 23015.56432
808.1774 23029.94107
808.3625 23366.40185
808.5476 23273.81318
808.7327 23283.27480
808.9178 22980.60550
809.1028 23053.92278
809.2879 22890.20816
809.4729 22811.70952
809.6579 22674.39321
809.8429 22927.80886
810.0279 22844.92757
810.2128 22845.21428
810.3978 22843.33015
810.5827 22889.94192
810.7676 23019.84458
810.9525 23118.29044
811.1374 22881.01278
811.3223 22719.03893
811.5072 22341.86452
811.6920 22306.00459
811.8768 22650.30910
812.0616 22245.11848
812.2464 22437.25891
812.4312 22320.50421
812.6160 22309.52710
812.8007 22421.14140
812.9855 22541.68484
813.1702 22263.40684
813.3549 22158.42796
813.5396 22002.47514
813.7243 21893.87136
813.9089 22117.42763
814.0936 22208.62368
814.2782 22169.60987
814.4628 22164.28515
814.6474 22187.38624
814.8320 22059.10148
815.0166 21808.94210
815.2012 22018.69506
815.3857 21792.04635
815.5702 21788.40097
815.7547 21872.47009
815.9392 21818.26035
816.1237 21602.60925
816.3082 21208.70294
816.4926 21386.75334
816.6771 21420.91346
816.8615 21188.57140
817.0459 21426.01290
817.2303 21356.11573
817.4147 21538.40543
817.5990 21548.13328
817.7834 21325.41668
817.9677 21235.85900
818.1520 21445.96012
818.3363 21246.20124
818.5206 21018.65144
818.7049 21117.62977
818.8891 21146.91572
819.0734 21158.30243
819.2576 21089.16300
819.4418 20799.06823
819.6260 20795.64812
819.8102 20834.08849
819.9944 20695.03141
820.1785 20566.23466
820.3627 20771.56401
820.5468 20737.95684
820.7309 20607.35787
820.9150 20381.61028
821.0991 20223.67093
821.2831 20472.31481
821.4672 20294.38729
821.6512 20192.19365
821.8352 20222.93366
822.0192 20513.76570
822.2032 20311.95886
822.3872 20462.36168
822.5711 20300.53119
822.7551 20252.03529
822.9390 20412.39125
823.1229 20467.82976
823.3068 20440.34602
823.4907 20064.95335
823.6745 20095.05849
823.8584 20001.95783
824.0422 19968.08443
824.2261 19972.73332
824.4099 20124.18060
824.5937 20292.81035
824.7774 20105.62601
824.9612 20117.54519
825.1449 20008.42941
825.3287 19951.06581
825.5124 19866.81237
825.6961 20053.11609
825.8798 20047.17698
826.0634 20192.23461
826.2471 19905.25275
826.4307 19992.84437
826.6144 19934.14958
826.7980 20057.78546
826.9816 19780.08090
827.1652 19967.12188
827.3487 19859.52160
827.5323 19572.51926
827.7158 19347.46798
827.8993 19636.31349
828.0828 19577.98734
828.2663 19327.64364
828.4498 19469.30164
828.6333 19790.85321
828.8167 19560.98920
829.0001 19595.68179
829.1836 19663.81771
829.3670 19683.72397
829.5504 19852.49707
829.7337 19440.93727
829.9171 19434.62953
830.1004 19447.36789
830.2837 19339.07130
830.4671 19155.53235
830.6504 18960.95483
830.8336 19080.55621
831.0169 19019.81346
831.2002 19165.77219
831.3834 19190.96220
831.5666 19160.87754
831.7498 19199.95279
831.9330 19407.76018
832.1162 19327.64364
832.2993 19106.01246
832.4825 19215.25111
832.6656 19088.21561
832.8487 18895.19456
833.0318 18858.76119
833.2149 18734.79765
833.3980 18889.48073
833.5811 18954.93381
833.7641 18897.50876
833.9471 18791.97693
834.1301 18550.19374
834.3131 18384.12396
834.4961 18599.38595
834.6791 18551.13581
834.8620 18963.24856
835.0450 18859.72374
835.2279 18951.96425
835.4108 18843.25807
835.5937 18988.41810
835.7766 18659.04328
835.9594 18731.93049
836.1423 18652.83794
836.3251 18998.98561
836.5079 18922.71926
836.6907 18637.04810
836.8735 18556.62436
837.0563 18620.58243
837.2390 18555.37510
837.4218 18351.58173
837.6045 18565.88118
837.7872 18756.40372
837.9699 18444.98959
838.1526 18284.36740
838.3352 18363.95146
838.5179 18471.42886
838.7005 18428.79015
838.8831 18429.40455
839.0658 18508.14894
839.2483 18703.42276
839.4309 18641.32835
839.6135 18624.08445
839.7960 18334.44023
839.9786 18372.73725
840.1611 18032.07813
840.3436 18294.25909
840.5261 18095.05317
840.7085 17938.11732
840.8910 17910.14207
841.0734 18010.61542
841.2559 17969.45124
841.4383 18082.39672
841.6207 18334.21496
841.8030 18002.23922
841.9854 17952.16639
842.1678 17809.70968
842.3501 17885.44357
842.5324 17782.45122
842.7147 17892.48858
842.8970 18149.89777
843.0793 18014.93663
843.2615 17970.76194
843.4438 18147.29685
843.6260 18143.44667
843.8082 18026.34382
843.9904 18045.77904
844.1726 17727.85237
844.3548 17567.45546
844.5369 17507.57285
844.7191 17622.52534
844.9012 17495.67415
845.0833 17500.52784
845.2654 17812.90451
845.4475 17957.47063
845.6296 17626.29360
845.8116 17531.96416
845.9936 17492.11069
846.1757 17335.37964
846.3577 17233.59559
846.5397 17279.49057
846.7216 17247.05075
846.9036 17256.77860
847.0855 16963.55043
847.2675 17146.39308
847.4494 17242.89337
847.6313 17436.69265
847.8132 17464.52455
847.9950 17314.49036
848.1769 17216.57697
848.3587 17385.14528
848.5406 17212.60391
848.7224 17199.51739
848.9042 17147.86762
849.0860 17290.03761
849.2677 17042.56107
849.4495 16891.81009
849.6312 16893.91950
849.8129 17102.38223
849.9946 17315.16619
850.1763 17207.07440
850.3580 16936.47629
850.5397 16831.00590
850.7213 16645.33705
850.9029 16696.24955
851.0845 16816.24004
851.2661 16792.79080
851.4477 16749.82441
851.6293 16745.52368
851.8109 16677.81783
851.9924 16722.34067
852.1739 16830.55534
852.3554 16688.11912
852.5369 16776.71424
852.7184 16482.62593
852.8999 16359.97308
853.0813 16412.91308
853.2628 16448.60917
853.4442 16553.91572
853.6256 16481.58147
853.8070 16503.74049
853.9883 16663.89165
854.1697 16513.28402
854.3510 16247.51912
854.5324 16304.12497
854.7137 16266.46283
854.8950 16254.48221
855.0763 16268.12168
855.2575 16328.45484
855.4388 16271.43939
855.6200 16297.61243
855.8013 16298.86170
855.9825 16085.58623
856.1637 16020.87042
856.3449 16077.76299
856.5260 16106.25023
856.7072 15951.64907
856.8883 16135.02420
857.0694 16035.86155
857.2505 16006.41176
857.4316 15946.52915
857.6127 15800.77522
857.7938 15911.28361
857.9748 15834.87390
858.1558 15734.78966
858.3368 15701.77641
858.5178 15646.44029
858.6988 15745.41862
858.8798 15681.35816
859.0607 15867.86667
859.2417 15830.94180
859.4226 15835.69308
859.6035 15827.35785
859.7844 15831.41283
859.9653 15737.86162
860.1462 15604.25213
860.3270 15647.97627
860.5078 15518.38080
860.6887 15614.79917
860.8695 15560.40512
861.0503 15491.67529
861.2310 15191.11540
861.4118 15199.24583
861.5925 15214.99471
861.7733 15257.83822
861.9540 15032.90981
862.1347 14922.52430
862.3154 14924.28555
862.4960 15122.24221
862.6767 15114.19369
862.8573 15119.06786
863.0380 14979.39639
863.2186 15002.84563
863.3992 14774.45616
863.5797 14830.81626
863.7603 14880.80717
863.9409 14908.55715
864.1214 14860.30701
864.3019 14829.99707
864.4824 14635.48100
864.6629 14554.83199
864.8434 14386.81663
865.0238 14437.11474
865.2043 14498.10325
865.3847 14349.68696
865.5651 14288.53461
865.7455 14385.83361
865.9259 14460.42063
866.1063 14285.91321
866.2866 14260.04737
866.4670 14175.38434
866.6473 14144.86960
866.8276 14132.99138
867.0079 14149.41609
867.1882 13966.34817
867.3684 13773.96198
867.5487 13852.95214
867.7289 13912.11795
867.9091 13904.45855
868.0893 13692.57570
868.2695 13491.38325
868.4497 13415.05546
868.6299 13445.57019
868.8100 13446.86041
868.9901 13510.87992
869.1703 13704.69968
869.3504 13703.67570
869.5304 13605.61895
869.7105 13733.76036
869.8906 13622.59661
870.0706 13453.88495
870.2506 13441.78145
870.4306 13453.82351
870.6106 13506.35391
870.7906 13658.94806
870.9706 13558.12656
871.1505 13439.24197
871.3305 13361.58300
871.5104 13283.78066
871.6903 13166.32965
871.8702 13239.83125
872.0500 13257.71002
872.2299 13217.63127
872.4097 13056.57901
872.5896 13046.40060
872.7694 13119.02158
872.9492 13119.90220
873.1290 12803.98254
873.3087 12833.20706
873.4885 13152.46491
873.6682 13139.78798
873.8480 12971.71118
874.0277 12874.41219
874.2074 12607.93050
874.3870 12643.70851
874.5667 12623.78177
874.7463 12809.32774
874.9260 12662.65222
875.1056 12638.81386
875.2852 12572.68495
875.4648 12595.86796
875.6444 12584.72701
875.8239 12708.19905
876.0035 12591.66962
876.1830 12479.68669
876.3625 12402.02772
876.5420 12424.65777
876.7215 12401.59764
876.9010 12335.38681
877.0804 12311.69182
877.2599 12133.72333
877.4393 12308.70178
877.6187 12403.42034
877.7981 12439.81274
877.9775 12340.01522
878.1568 12425.31312
878.3362 12284.51527
878.5155 12291.53980
878.6948 12096.85989
878.8741 12073.39017
879.0534 12021.35129
879.2327 11951.02404
879.4119 12031.85737
879.5912 11884.79273
879.7704 12018.48413
879.9496 12157.66409
880.1288 12130.11891
880.3080 11921.63569
880.4872 12011.86919
880.6663 11983.36147
880.8455 11932.36704
881.0246 12027.02416
881.2037 11982.37844
881.3828 11875.94550
881.5619 11869.08481
881.7409 11851.28796
881.9200 11805.29058
882.0990 11836.09203
882.2780 11735.25005
882.4570 11729.59766
882.6360 11749.01240
882.8150 11594.41124
882.9940 11590.72490
883.1729 11613.53927
883.3518 11814.91604
883.5308 11744.77311
883.7096 11699.20580
883.8885 11467.37574
884.0674 11392.52248
884.2463 11285.37276
884.4251 11409.74590
884.6039 11340.93415
884.7827 11415.50069
884.9615 11393.34167
885.1403 11327.15132
885.3191 11263.13182
885.4978 11126.55278
885.6765 11143.83764
885.8553 11233.21099
886.0340 11326.78268
886.2127 11230.18000
886.3913 11057.39288
886.5700 10966.34018
886.7486 10855.48364
886.9273 10853.41519
887.1059 10792.30380
887.2845 10703.36052
887.4630 10729.18540
887.6416 10845.30523
887.8202 10886.44892
887.9987 10896.21773
888.1772 10882.43490
888.3557 10865.90780
888.5342 10747.10513
888.7127 10893.12530
888.8912 10909.34521
889.0696 10948.01086
889.2481 10734.32580
889.4265 10577.18516
889.6049 10516.34001
889.7833 10487.58653
889.9616 10407.63383
890.1400 10410.29619
890.3183 10303.47414
890.4967 10421.88769
890.6750 10596.33367
890.8533 10450.39542
891.0316 10318.83390
891.2098 10208.75558
891.3881 10219.36406
891.5663 10149.58977
891.7445 10194.23549
891.9227 10165.23625
892.1009 10111.41563
892.2791 10222.92753
892.4573 10183.13550
892.6354 10121.43020
892.8136 10185.08107
892.9917 10137.77299
893.1698 10065.88928
893.3479 10145.49383
893.5259 10178.46613
893.7040 10024.04928
893.8820 10032.60979
894.0601 9958.47332
894.2381 10083.25606
894.4161 10127.67650
894.5941 10230.25926
894.7720 10192.43327
894.9500 10184.67147
895.1279 10222.29266
895.3058 10050.67288
895.4838 10036.29614
895.6616 9916.79716
895.8395 9843.17268
896.0174 9853.63780
896.1952 9918.00546
896.3731 10006.33435
896.5509 9975.94250
896.7287 9913.76617
896.9065 9866.88816
897.0842 9957.89989
897.2620 9885.46324
897.4397 9785.35852
897.6175 9798.09689
897.7952 9873.60550
897.9729 9931.07150
898.1506 9872.31528
898.3282 9787.77513
898.5059 9739.23827
898.6835 9773.58270
898.8611 9819.55960
899.0388 9638.06861
899.2163 9474.80454
899.3939 9475.93093
899.5715 9661.68169
899.7490 9693.93720
899.9266 9575.87180
900.1041 9618.24427
900.2816 9622.09446
900.4591 9580.58213
900.6365 9643.72101
900.8140 9513.94123
900.9914 9468.61968
901.1689 9460.61212
901.3463 9514.49418
901.5237 9569.68694
901.7011 9438.04350
901.8784 9411.41991
902.0558 9302.73421
902.2331 9356.39099
902.4104 9421.53688
902.5878 9416.78559
902.7650 9298.80211
902.9423 9249.01599
903.1196 9371.46404
903.2968 9411.62471
903.4741 9381.35573
903.6513 9312.13439
903.8285 9238.42799
904.0057 9330.79138
904.1828 9172.31956
904.3600 9071.12942
904.5371 9040.08222
904.7143 9093.14509
904.8914 9132.07697
905.0685 9223.94885
905.2456 9147.33434
905.4226 9145.53213
905.5997 9222.86343
905.7767 9298.12628
905.9537 9204.82082
906.1307 9130.64340
906.3077 9106.47736
906.4847 9101.37792
906.6617 9024.33334
906.8386 9151.32788
907.0156 9029.41230
907.1925 8970.65608
907.3694 8942.08691
907.5463 8917.18361
907.7231 8903.89230
907.9000 8978.31548
908.0768 8965.96623
908.2537 8856.74805
908.4305 8768.03005
908.6073 8847.67555
908.7841 8898.95669
908.9608 8845.60710
909.1376 8814.23222
909.3143 8841.85932
909.4910 8821.27724
909.6677 8846.71301
909.8444 8818.20528
910.0211 8785.04867
910.1978 8749.57785
910.3744 8831.76284
910.5510 8841.59309
910.7277 8864.34602
910.9043 8720.57861
911.0808 8694.77421
911.2574 8711.09652
911.4340 8676.09673
911.6105 8562.84406
911.7870 8576.21730
911.9636 8623.81209
912.1401 8544.22802
912.3165 8597.16802
912.4930 8528.19243
912.6695 8424.87240
912.8459 8439.45394
913.0223 8425.93735
913.1987 8380.34956
913.3751 8379.81709
913.5515 8378.17872
913.7279 8431.01631
913.9042 8396.24180
914.0805 8298.20554
914.2568 8280.79780
914.4331 8281.26884
914.6094 8275.18637
914.7857 8306.47933
914.9620 8337.15790
915.1382 8226.71095
915.3144 8208.40211
915.4906 8330.52248
915.6668 8338.75532
915.8430 8233.71500
916.0192 8067.46090
916.1953 8118.92635
916.3715 8141.14681
916.5476 8082.34963
916.7237 8182.94586
916.8998 8125.50033
917.0759 8019.96850
917.2519 7964.26375
917.4280 8078.92952
917.6040 8020.58289
917.7800 8056.72954
917.9560 8012.65725
918.1320 8040.50963
918.3080 8065.14669
918.4839 7997.37941
918.6599 7997.01077
918.8358 7976.26485
919.0117 7950.87004
919.1876 7916.19793
919.3635 7928.11710
919.5394 8026.27625
919.7152 7983.00267
919.8911 7925.96674
920.0669 7891.31511
920.2427 7726.12595
920.4185 7675.82783
920.5942 7715.59939
920.7700 7676.56510
920.9458 7795.06057
921.1215 7785.57848
921.2972 7760.06079
921.4729 7745.17206
921.6486 7599.00853
921.8243 7467.50845
921.9999 7502.16008
922.1756 7500.86986
922.3512 7524.56486
922.5268 7488.47965
922.7024 7586.31112
922.8780 7647.50443
923.0535 7626.12363
923.2291 7527.65730
923.4046 7615.08508
923.5801 7687.39886
923.7557 7642.85554
923.9311 7601.73233
924.1066 7530.38109
924.2821 7564.27498
924.4575 7589.11684
924.6330 7548.28034
924.8084 7454.72913
924.9838 7414.36366
925.1592 7420.03654
925.3345 7385.79450
925.5099 7315.69253
925.6852 7263.98132
925.8606 7339.96096
926.0359 7256.83391
926.2112 7239.75385
926.3864 7211.26660
926.5617 7075.44532
926.7370 7065.28739
926.9122 7053.53205
927.0874 7056.25585
927.2626 7038.58188
927.4378 7019.90440
927.6130 7038.76620
927.7882 7022.38245
927.9633 6902.43292
928.1384 6901.40893
928.3135 6861.18683
928.4886 6792.17028
928.6637 6835.50530
928.8388 6875.33829
929.0139 6854.03941
929.1889 6814.53410
929.3639 6800.91510
929.5389 6808.61547
929.7139 6817.36029
929.8889 6815.29185
930.0639 6826.67855
930.2388 6750.35076
930.4138 6693.72442
930.5887 6691.98365
930.7636 6714.38843
930.9385 6689.93568
931.1134 6641.72649
931.2882 6651.53626
931.4631 6545.32860
931.6379 6505.22938
931.8127 6448.86928
931.9875 6466.15413
932.1623 6480.16224
932.3371 6469.61520
932.5118 6426.46450
932.6866 6375.87967
932.8613 6403.32245
933.0360 6406.06673
933.2107 6371.94757
933.3854 6341.84243
933.5600 6349.15368
933.7347 6241.92203
933.9093 6226.66467
934.0839 6293.32605
934.2586 6327.85480
934.4331 6284.78602
934.6077 6244.52295
934.7823 6195.33075
934.9568 6272.19101
935.1314 6203.05159
935.3059 6198.32078
935.4804 6116.15627
935.6549 6121.35811
935.8293 6125.18782
936.0038 6104.15518
936.1782 6113.53487
936.3526 6113.10480
936.5271 6047.48788
936.7015 5996.61634
936.8758 5999.15582
937.0502 5952.15494
937.2246 5971.28296
937.3989 6078.26885
937.5732 5979.10620
937.7475 5955.24737
937.9218 5941.05495
938.0961 5893.27583
938.2703 5878.36662
938.4446 5823.23530
938.6188 5876.42105
938.7930 5868.72069
938.9672 5840.19248
939.1414 5884.42861
939.3156 5818.95505
939.4897 5770.82778
939.6639 5726.96029
939.8380 5716.41325
940.0121 5690.85460
940.1862 5711.74388
940.3603 5761.77576
940.5344 5764.56100
940.7084 5746.94847
940.8824 5707.42267
941.0565 5695.17582
941.2305 5632.40557
941.4045 5559.45693
941.5784 5531.56359
941.7524 5560.13276
941.9263 5622.20669
942.1003 5634.02347
942.2742 5606.78549
942.4481 5524.76434
942.6220 5552.90343
942.7958 5526.54607
942.9697 5547.59919
943.1435 5497.15772
943.3174 5507.86860
943.4912 5434.67419
943.6650 5445.69226
943.8387 5382.86058
944.0125 5376.04085
944.1863 5413.06812
944.3600 5422.38638
944.5337 5428.55077
944.7074 5462.91568
944.8811 5415.95576
945.0548 5396.93013
945.2284 5323.26469
945.4021 5338.72686
945.5757 5352.57113
945.7493 5301.18759
945.9229 5168.06962
946.0965 5078.36859
946.2701 5083.07892
946.4436 5134.72869
946.6172 5121.31449
946.7907 5121.35545
946.9642 5125.43091
947.1377 5149.78126
947.3112 5087.27725
947.4847 5116.64513
947.6581 5135.58884
947.8315 5143.53495
948.0050 5053.36289
948.1784 4999.66515
948.3518 5044.72046
948.5251 5048.55016
948.6985 5120.51579
948.8718 5070.89350
949.0452 4968.90466
949.2185 4963.86666
949.3918 4963.62090
949.5651 4975.00761
949.7383 4943.20265
949.9116 4920.28588
950.0848 4967.59396
950.2581 4983.42476
950.4313 4991.35040
950.6045 5017.38008
950.7776 5026.94409
950.9508 4918.42223
951.1239 4907.36320
951.2971 4814.89741
951.4702 4847.29628
951.6433 4833.53392
951.8164 4788.68341
951.9895 4786.79928
952.1625 4729.33327
952.3356 4774.98250
952.5086 4725.15542
952.6816 4763.02236
952.8546 4720.21981
953.0276 4689.93036
953.2006 4698.98238
953.3735 4700.19068
953.5465 4722.84121
953.7194 4718.56096
953.8923 4678.44125
954.0652 4680.85785
954.2381 4655.42208
954.4109 4641.78261
954.5838 4607.95017
954.7566 4615.48669
954.9294 4561.11312
955.1022 4545.48712
955.2750 4570.57474
955.4478 4534.40761
955.6206 4581.81809
955.7933 4585.01292
955.9660 4558.71700
956.1388 4589.27269
956.3115 4568.69061
956.4841 4506.32996
956.6568 4456.89199
956.8295 4472.02648
957.0021 4430.63703
957.1747 4447.28702
957.3473 4442.74053
957.5199 4406.10237
957.6925 4416.81324
957.8651 4426.02910
958.0376 4416.28077
958.2102 4374.25645
958.3827 4428.05659
958.5552 4466.78368
958.7277 4426.99165
958.9001 4396.39500
959.0726 4319.41185
959.2450 4272.30857
959.4175 4297.39619
959.5899 4236.30528
959.7623 4214.59681
959.9347 4179.47415
960.1070 4187.48170
960.2794 4209.21065
960.4517 4191.20901
960.6241 4206.22062
960.7964 4209.86600
960.9687 4231.49255
961.1409 4250.41578
961.3132 4220.31064
961.4855 4204.15217
961.6577 4162.96752
961.8299 4140.56274
962.0021 4109.45409
962.1743 4085.67718
962.3465 4048.38367
962.5186 4048.89566
962.6908 4030.60730
962.8629 4033.82261
963.0350 3985.55198
963.2071 3998.20843
963.3792 4020.12170
963.5513 4038.57390
963.7233 4087.13123
963.8954 4063.70247
964.0674 4048.32223
964.2394 4021.73959
964.4114 3996.09902
964.5834 3984.42560
964.7553 3966.66971
964.9273 3974.30864
965.0992 3950.04021
965.2711 3991.88021
965.4430 3963.02433
965.6149 3936.15498
965.7868 3919.21828
965.9587 3909.38803
966.1305 3943.05663
966.3023 3939.37029
966.4741 3928.37270
966.6459 3926.09945
966.8177 3924.89115
966.9895 3905.88600
967.1613 3913.72972
967.3330 3923.96956
967.5047 3876.51813
967.6764 3865.84821
967.8481 3860.74877
968.0198 3845.92148
968.1915 3810.32778
968.3631 3778.66618
968.5347 3778.42043
968.7064 3795.07041
968.8780 3778.62522
969.0496 3774.89792
969.2211 3763.49073
969.3927 3775.26655
969.5642 3719.19317
969.7358 3694.20795
969.9073 3684.86921
970.0788 3719.31605
970.2503 3735.61788
970.4217 3741.37267
970.5932 3725.39851
970.7646 3707.35591
970.9360 3712.10720
971.1074 3745.75532
971.2788 3781.16470
971.4502 3732.34113
971.6216 3662.58731
971.7929 3629.38974
971.9643 3631.54011
972.1356 3674.52697
972.3069 3656.83252
972.4782 3633.75191
972.6494 3619.96908
972.8207 3606.96448
972.9919 3580.44329
973.1632 3563.36323
973.3344 3574.21746
973.5056 3541.63428
973.6768 3535.40845
973.8479 3548.22874
974.0191 3583.10565
974.1902 3582.73701
974.3614 3563.34275
974.5325 3540.71269
974.7036 3535.55181
974.8746 3521.13411
975.0457 3533.87248
975.2167 3521.09315
975.3878 3481.38304
975.5588 3449.29137
975.7298 3451.31886
975.9008 3437.37219
976.0718 3408.63919
976.2427 3418.12128
976.4137 3405.17812
976.5846 3414.02535
976.7555 3403.21207
976.9264 3412.50985
977.0973 3409.27406
977.2682 3416.13475
977.4390 3427.00947
977.6098 3452.13804
977.7807 3419.12479
977.9515 3418.67423
978.1223 3447.71443
978.2930 3410.64620
978.4638 3371.34568
978.6346 3343.30898
978.8053 3297.55736
978.9760 3305.64684
979.1467 3277.52823
979.3174 3271.71200
979.4881 3270.29890
979.6587 3283.61070
979.8294 3269.58211
980.0000 3256.86422
980.1706 3256.82326
980.3412 3245.08840
980.5118 3272.89982
980.6824 3274.70203
980.8529 3280.14963
981.0235 3279.39188
981.1940 3252.03102
981.3645 3223.52329
981.5350 3230.65022
981.7055 3214.75799
981.8759 3208.61408
982.0464 3210.76445
982.2168 3188.99454
982.3872 3222.15115
982.5576 3194.13494
982.7280 3185.77923
982.8984 3195.62996
983.0687 3202.65449
983.2391 3194.87221
983.4094 3186.27074
983.5797 3156.69807
983.7500 3152.25398
983.9203 3122.84515
984.0906 3138.43019
984.2608 3117.84810
984.4311 3126.83869
984.6013 3099.35495
984.7715 3137.09901
984.9417 3151.51671
985.1119 3132.45012
985.2820 3082.93024
985.4522 3052.23119
985.6223 3094.56270
985.7924 3088.43927
985.9625 3112.68722
986.1326 3110.29110
986.3027 3081.31234
986.4727 3084.91677
986.6428 3081.90625
986.8128 3066.71032
986.9828 3058.12934
987.1528 3031.79246
987.3228 3025.05464
987.4928 3047.68470
987.6627 3056.96199
987.8327 3021.38878
988.0026 3028.96626
988.1725 3045.53433
988.3424 3026.81589
988.5123 3019.75040
988.6821 3006.37717
988.8520 3002.73178
989.0218 2960.58458
989.1916 2974.53125
989.3614 2928.41100
989.5312 2935.70176
989.7010 2931.58535
989.8707 2941.19032
990.0405 2938.60988
990.2102 2951.16393
990.3799 2946.49456
990.5496 2931.81062
990.7193 2914.93536
990.8890 2906.39533
991.0586 2890.58501
991.2283 2904.73648
991.3979 2894.43519
991.5675 2916.22558
991.7371 2904.92079
991.9067 2878.13336
992.0762 2853.27102
992.2458 2878.25624
992.4153 2886.03852
992.5848 2904.34736
992.7543 2892.61250
992.9238 2848.35590
993.0933 2852.10368
993.2627 2868.50791
993.4322 2847.43431
993.6016 2841.92528
993.7710 2826.70887
993.9404 2822.77677
994.1098 2807.49892
994.2792 2830.47713
994.4485 2822.51053
994.6179 2829.67842
994.7872 2821.62990
994.9565 2824.43562
995.1258 2842.90830
995.2951 2835.67897
995.4643 2825.48009
995.6336 2847.06568
995.8028 2826.77031
995.9720 2789.68159
996.1412 2797.40243
996.3104 2798.22162
996.4796 2812.61884
996.6487 2803.85354
996.8179 2794.49432
996.9870 2794.43288
997.1561 2767.44065
997.3252 2760.14988
997.4943 2746.51041
997.6634 2753.28919
997.8324 2747.20672
998.0014 2756.64786
998.1705 2734.98035
998.3395 2711.92022
998.5085 2694.12337
998.6774 2706.98461
998.8464 2682.16323
999.0153 2689.02393
999.1843 2696.82669
999.3532 2697.97355
999.5221 2678.74312
999.6910 2682.28611
999.8599 2699.05898
1000.0287 2714.29586
1000.1976 2719.33387
1000.3664 2715.23793
1000.5352 2708.74587
1000.7040 2706.80030
1000.8728 2697.19532
1001.0415 2672.37394
1001.2103 2650.84979
1001.3790 2639.91364
1001.5478 2620.82657
1001.7165 2629.28468
1001.8851 2631.43505
1002.0538 2631.94704
1002.2225 2652.81584
1002.3911 2628.79317
1002.5598 2608.82547
1002.7284 2607.69909
1002.8970 2600.10113
1003.0656 2599.83489
1003.2341 2575.81222
1003.4027 2574.87015
1003.5712 2541.05819
1003.7398 2540.03420
1003.9083 2551.72810
1004.0768 2530.98218
1004.2453 2519.08348
1004.4137 2571.06093
1004.5822 2559.18271
1004.7506 2575.01351
1004.9190 2536.88033
1005.0874 2545.72755
1005.2558 2541.03771
1005.4242 2536.75745
1005.5926 2531.94473
1005.7609 2528.09454
1005.9292 2517.15839
1006.0976 2534.19749
1006.2659 2537.45376
1006.4342 2558.65024
1006.6024 2523.83477
1006.7707 2528.03310
1006.9389 2516.54400
1007.1071 2517.05599
1007.2754 2521.64344
1007.4436 2501.36855
1007.6117 2512.12039
1007.7799 2501.42999
1007.9481 2485.23056
1008.1162 2493.64771
1008.2843 2475.58463
1008.4524 2488.77354
1008.6205 2468.58057
1008.7886 2484.18609
1008.9566 2471.81636
1009.1247 2474.19201
1009.2927 2459.46711
1009.4607 2445.82764
1009.6287 2438.65975
1009.7967 2446.64683
1009.9647 2424.93836
1010.1327 2407.46918
1010.3006 2391.90462
1010.4685 2379.57585
1010.6364 2393.35868
1010.8043 2403.80332
1010.9722 2390.16385
1011.1401 2371.89597
1011.3079 2370.70815
1011.4758 2391.16735
1011.6436 2374.37401
1011.8114 2396.53303
1011.9792 2385.47400
1012.1470 2397.76181
1012.3147 2397.59798
1012.4825 2400.17842
1012.6502 2395.81624
1012.8179 2395.59097
1012.9856 2366.16165
1013.1533 2370.23711
1013.3210 2345.80485
1013.4886 2341.74987
1013.6563 2343.34728
1013.8239 2344.90374
1013.9915 2354.05816
1014.1591 2336.19987
1014.3267 2344.06407
1014.4942 2355.55318
1014.6618 2346.70595
1014.8293 2350.88381
1014.9969 2347.56610
1015.1644 2368.80353
1015.3319 2358.89137
1015.4993 2340.25485
1015.6668 2311.46041
1015.8342 2317.91151
1016.0017 2308.71613
1016.1691 2326.57442
1016.3365 2303.18662
1016.5039 2314.22517
1016.6712 2302.46983
1016.8386 2313.46742
1017.0059 2299.09068
1017.1733 2317.39952
1017.3406 2292.12758
1017.5079 2307.05728
1017.6752 2284.38626
1017.8424 2291.24696
1018.0097 2271.32022
1018.1769 2286.20895
1018.3441 2268.53498
1018.5113 2278.22188
1018.6785 2267.57244
1018.8457 2267.85915
1019.0129 2257.31212
1019.1800 2260.40455
1019.3471 2275.47760
1019.5142 2274.45361
1019.6813 2249.71415
1019.8484 2248.64921
1020.0155 2252.84754
1020.1826 2251.20917
1020.3496 2227.08410
1020.5166 2232.77745
1020.6836 2216.51658
1020.8506 2219.19942
1021.0176 2208.91861
1021.1846 2215.14444
1021.3515 2209.20533
1021.5185 2220.14148
1021.6854 2201.64833
1021.8523 2221.16547
1022.0192 2232.20402
1022.1861 2219.81381
1022.3529 2197.14279
1022.5198 2221.88226
1022.6866 2191.92047
1022.8534 2222.20993
1023.0202 2208.77526
1023.1870 2198.20774
1023.3538 2192.57582
1023.5205 2190.15922
1023.6873 2173.65259
1023.8540 2177.62565
1024.0207 2166.01367
1024.1874 2174.71754
1024.3541 2173.14060
1024.5207 2173.30444
1024.6874 2150.44911
1024.8540 2169.08562
1025.0206 2151.26829
1025.1872 2166.95573
1025.3538 2154.44265
1025.5204 2160.29984
1025.6870 2137.81314
1025.8535 2139.79967
1026.0201 2146.88564
1026.1866 2148.03250
1026.3531 2127.53234
1026.5196 2133.02089
1026.6860 2147.62291
1026.8525 2139.32864
1027.0189 2112.60264
1027.1853 2129.70318
1027.3518 2115.38788
1027.5181 2124.11223
1027.6845 2121.32699
1027.8509 2112.43881
1028.0172 2107.07313
1028.1836 2088.45709
1028.3499 2095.99362
1028.5162 2098.47166
1028.6825 2082.92758
1028.8488 2089.01004
1029.0150 2088.19086
1029.1813 2075.65729
1029.3475 2065.74512
1029.5137 2079.56891
1029.6799 2076.31264
1029.8461 2074.46947
1030.0123 2070.41449
1030.1784 2073.99843
1030.3446 2073.77316
1030.5107 2072.48294
1030.6768 2064.59826
1030.8429 2060.21560
1031.0090 2055.62815
1031.1750 2060.78903
1031.3411 2045.92078
1031.5071 2067.56781
1031.6732 2044.42576
1031.8392 2055.75103
1032.0051 2045.65455
1032.1711 2048.27595
1032.3371 2030.43814
1032.5030 2035.02559
1032.6690 2017.65881
1032.8349 2036.07005
1033.0008 2021.30420
1033.1667 2026.15788
1033.3325 2012.04738
1033.4984 2026.91563
1033.6642 2013.68575
1033.8300 2031.33924
1033.9959 2022.22578
1034.1616 2032.24035
1034.3274 2023.67984
1034.4932 2024.90862
1034.6589 1996.60569
1034.8247 2013.91103
1034.9904 2004.36750
1035.1561 2006.19019
1035.3218 2003.22063
1035.4875 2003.58927
1035.6531 1991.44481
1035.8188 2001.13170
1035.9844 1973.09501
1036.1500 1989.51972
1036.3156 1979.85331
1036.4812 1975.04058
1036.6468 1979.38228
1036.8123 1978.23541
1036.9779 1971.06752
1037.1434 1981.43025
1037.3089 1972.91070
1037.4744 1982.00368
1037.6399 1973.68892
1037.8053 1968.28229
1037.9708 1971.92767
1038.1362 1970.35073
1038.3016 1972.25535
1038.4670 1968.40516
1038.6324 1969.81826
1038.7978 1939.24209
1038.9632 1956.30167
1039.1285 1961.68783
1039.2938 1939.36497
1039.4592 1944.83304
1039.6245 1941.12622
1039.7897 1938.05427
1039.9550 1941.63821
1040.1203 1939.97936
1040.2855 1931.80796
1040.4507 1944.58729
1040.6159 1927.95778
1040.7811 1930.49726
1040.9463 1933.40538
1041.1115 1922.42827
1041.2766 1909.87422
1041.4418 1912.92569
1041.6069 1902.15338
1041.7720 1912.14746
1041.9371 1895.72275
1042.1021 1916.10004
1042.2672 1891.13530
1042.4323 1905.79876
1042.5973 1899.75725
1042.7623 1904.42662
1042.9273 1895.59988
1043.0923 1897.09489
1043.2572 1884.00837
1043.4222 1877.59823
1043.5871 1860.43625
1043.7521 1898.05744
1043.9170 1906.61795
1044.0819 1882.61575
1044.2467 1878.33550
1044.4116 1874.95635
1044.5765 1866.94879
1044.7413 1876.47185
1044.9061 1871.90488
1045.0709 1872.96982
1045.2357 1856.27888
1045.4005 1852.32630
1045.5652 1855.09105
1045.7300 1846.81726
1045.8947 1837.84716
1046.0594 1845.93663
1046.2241 1842.20933
1046.3888 1841.18535
1046.5535 1847.84124
1046.7181 1845.71136
1046.8828 1838.56395
1047.0474 1829.59384
1047.2120 1822.63075
1047.3766 1824.00289
1047.5412 1814.33648
1047.7057 1823.44994
1047.8703 1821.83204
1048.0348 1813.08721
1048.1993 1819.29256
1048.3639 1823.51138
1048.5283 1800.55365
1048.6928 1803.50272
1048.8573 1803.21600
1049.0217 1800.00069
1049.1861 1794.79885
1049.3506 1813.64017
1049.5150 1787.95864
1049.6793 1805.24349
1049.8437 1792.25937
1050.0081 1795.39276
1050.1724 1781.07746
1050.3367 1790.17044
1050.5010 1777.35016
1050.6653 1778.18983
1050.8296 1773.13134
1050.9939 1778.45606
1051.1581 1771.41105
1051.3224 1772.25072
1051.4866 1761.80608
1051.6508 1770.30515
1051.8150 1750.60369
1051.9791 1749.92786
1052.1433 1759.14372
1052.3074 1748.08469
1052.4716 1741.98174
1052.6357 1741.69502
1052.7998 1739.91329
1052.9639 1744.07067
1053.1279 1724.26681
1053.2920 1730.96367
1053.4560 1730.73839
1053.6201 1754.67915
1053.7841 1731.96717
1053.9481 1721.82973
1054.1120 1735.75591
1054.2760 1723.57050
1054.4399 1730.41072
1054.6039 1722.73083
1054.7678 1717.24228
1054.9317 1714.45704
1055.0956 1721.09246
1055.2595 1720.96958
1055.4233 1699.38399
1055.5872 1705.32310
1055.7510 1686.89138
1055.9148 1697.99137
1056.0786 1697.31554
1056.2424 1711.93804
1056.4062 1685.80596
1056.5699 1693.77255
1056.7336 1682.01721
1056.8974 1674.86980
1057.0611 1679.78493
1057.2248 1668.76686
1057.3885 1670.75339
1057.5521 1669.01261
1057.7158 1652.79270
1057.8794 1681.52570
1058.0430 1665.57202
1058.2066 1667.49712
1058.3702 1657.85118
1058.5338 1662.95063
1058.6973 1652.11687
1058.8609 1662.35671
1059.0244 1655.04547
1059.1879 1658.21982
1059.3514 1639.56282
1059.5149 1662.52055
1059.6784 1643.39252
1059.8418 1639.62426
1060.0053 1637.67869
1060.1687 1641.56983
1060.3321 1628.72907
1060.4955 1635.63072
1060.6589 1636.63423
1060.8222 1644.29363
1060.9856 1619.30841
1061.1489 1629.42538
1061.3122 1624.73553
1061.4755 1635.75360
1061.6388 1622.48276
1061.8021 1623.91634
1061.9654 1616.76893
1062.1286 1621.86837
1062.2918 1613.53314
1062.4550 1609.13001
1062.6182 1609.84680
1062.7814 1610.64550
1062.9446 1610.95270
1063.1077 1597.94810
1063.2709 1582.48593
1063.4340 1594.34367
1063.5971 1587.25770
1063.7602 1597.47706
1063.9233 1590.65733
1064.0863 1600.03702
1064.2494 1583.16176
1064.4124 1592.09091
1064.5754 1570.89443
1064.7384 1582.60881
1064.9014 1578.43095
1065.0644 1581.70770
1065.2274 1561.00274
1065.3903 1574.60125
1065.5532 1562.98927
1065.7162 1575.27708
1065.8790 1564.13613
1066.0419 1557.00920
1066.2048 1566.45034
1066.3677 1562.19056
1066.5305 1559.05717
1066.6933 1552.62655
1066.8561 1552.64703
1067.0189 1548.30533
1067.1817 1538.10645
1067.3445 1539.66291
1067.5072 1528.99299
1067.6699 1540.29778
1067.8327 1535.85368
1067.9954 1532.26974
1068.1580 1527.23174
1068.3207 1522.13229
1068.4834 1520.28912
1068.6460 1522.05038
1068.8086 1513.05979
1068.9713 1516.66422
1069.1339 1511.46238
1069.2964 1518.15923
1069.4590 1495.91829
1069.6216 1516.93045
1069.7841 1506.83397
1069.9466 1506.87493
1070.1091 1500.60814
1070.2716 1494.40280
1070.4341 1498.35538
1070.5966 1497.18803
1070.7590 1494.23896
1070.9214 1507.50980
1071.0839 1486.62052
1071.2463 1493.07162
1071.4086 1493.44025
1071.5710 1482.21738
1071.7334 1477.11794
1071.8957 1479.71886
1072.0580 1474.76278
1072.2204 1478.16240
1072.3827 1460.93899
1072.5449 1465.09636
1072.7072 1460.69323
1072.8695 1459.40301
1073.0317 1455.53235
1073.1939 1454.67220
1073.3561 1450.76058
1073.5183 1471.83418
1073.6805 1445.57922
1073.8427 1449.26557
1074.0048 1438.08366
1074.1669 1442.40487
1074.3291 1433.74196
1074.4912 1450.41243
1074.6532 1436.26096
1074.8153 1440.41834
1074.9774 1422.08902
1075.1394 1443.38790
1075.3014 1431.16152
1075.4635 1434.35635
1075.6255 1425.77536
1075.7874 1429.46171
1075.9494 1414.63441
1076.1114 1426.94271
1076.2733 1417.93164
1076.4352 1415.00305
1076.5971 1403.41155
1076.7590 1416.80526
1076.9209 1408.03995
1077.0828 1408.73626
1077.2446 1401.32262
1077.4064 1396.42797
1077.5683 1389.07576
1077.7301 1397.14476
1077.8918 1390.22263
1078.0536 1390.91894
1078.2154 1387.23259
1078.3771 1399.78664
1078.5388 1381.43684
1078.7006 1386.14717
1078.8623 1371.74995
1079.0239 1377.07467
1079.1856 1379.83943
1079.3473 1387.06875
1079.5089 1374.33039
1079.6705 1379.47079
1079.8321 1362.57505
1079.9937 1374.35087
1080.1553 1365.48316
1080.3169 1362.96416
1080.4784 1355.05900
1080.6399 1363.92671
1080.8014 1346.64185
1080.9629 1361.48962
1081.1244 1356.88170
1081.2859 1356.51306
1081.4474 1341.56289
1081.6088 1345.49499
1081.7702 1342.03392
1081.9316 1350.43059
1082.0930 1340.72322
1082.2544 1341.35809
1082.4158 1332.18319
1082.5771 1336.75016
1082.7385 1335.76714
1082.8998 1345.35163
1083.0611 1333.30958
1083.2224 1327.65718
1083.3837 1321.20608
1083.5449 1334.04684
1083.7062 1317.29446
1083.8674 1322.92637
1084.0286 1313.17804
1084.1898 1317.43782
1084.3510 1297.10149
1084.5122 1318.78948
1084.6734 1309.53266
1084.8345 1302.26237
1084.9956 1302.95868
1085.1567 1308.30388
1085.3178 1300.68543
1085.4789 1308.24244
1085.6400 1289.25777
1085.8010 1294.93064
1085.9621 1291.26478
1086.1231 1303.67547
1086.2841 1280.14431
1086.4451 1293.18987
1086.6061 1285.16183
1086.7670 1298.65794
1086.9280 1279.95999
1087.0889 1283.01146
1087.2498 1275.39302
1087.4107 1274.49191
1087.5716 1283.50298
1087.7325 1267.95889
1087.8933 1270.17070
1088.0542 1285.63286
1088.2150 1269.14671
1088.3758 1272.75114
1088.5366 1268.92144
1088.6974 1270.45741
1088.8582 1274.26664
1089.0189 1268.92144
1089.1796 1268.42992
1089.3404 1271.03085
1089.5011 1255.97828
1089.6618 1276.86756
1089.8224 1263.80152
1089.9831 1272.91498
1090.1438 1258.39488
1090.3044 1269.02384
1090.4650 1262.20410
1090.6256 1273.16073
1090.7862 1255.58916
1090.9468 1267.87697
1091.1073 1257.84193
1091.2679 1264.41591
1091.4284 1267.95889
1091.5889 1268.34801
1091.7494 1260.27901
1091.9099 1265.70613
1092.0703 1263.12569
1092.2308 1266.54579
1092.3912 1259.00927
1092.5516 1260.05373
1092.7121 1248.50319
1092.8724 1261.05724
1093.0328 1245.06260
1093.1932 1263.33048
1093.3535 1255.89636
1093.5139 1270.43693
1093.6742 1253.56167
1093.8345 1253.07016
1093.9948 1248.76942
1094.1550 1252.06665
1094.3153 1250.73548
1094.4755 1261.75355
1094.6358 1261.79451
1094.7960 1256.22403
1094.9562 1251.90282
1095.1163 1261.54875
1095.2765 1246.18898
1095.4367 1250.53068
1095.5968 1249.19950
1095.7569 1254.60614
1095.9170 1244.93972
1096.0771 1260.54525
1096.2372 1250.83787
1096.3973 1265.31701
1096.5573 1240.27035
1096.7173 1255.32292
1096.8773 1256.01923
1097.0374 1259.80798
1097.1973 1248.60559
1097.3573 1260.19709
1097.5173 1244.40725
1097.6772 1257.59617
1097.8371 1242.72792
1097.9970 1254.15558
1098.1569 1248.48271
1098.3168 1254.03270
1098.4767 1249.75245
1098.6365 1257.12514
1098.7964 1256.73602
1098.9562 1254.74949
1099.1160 1245.08308
1099.2758 1257.82145
1099.4356 1246.02515
1099.5953 1255.65060
1099.7551 1263.06425
1099.9148 1262.32698
1100.0745 1250.42828
1100.2342 1243.66998
1100.3939 1251.12459
1100.5536 1259.31646
1100.7132 1251.65706
1100.8729 1256.34691
1101.0325 1246.41426
1101.1921 1251.84138
1101.3517 1243.54710
1101.5113 1256.42883
1101.6709 1244.59157
1101.8304 1249.56813
1101.9899 1241.70393
1102.1495 1255.38436
1102.3090 1252.80392
1102.4685 1260.58620
1102.6279 1246.68050
1102.7874 1251.20651
1102.9468 1247.72496
1103.1063 1245.04212
1103.2657 1244.05910
1103.4251 1253.02920
1103.5845 1239.98364
1103.7438 1253.60263
1103.9032 1245.12404
1104.0625 1252.86536
1104.2219 1241.62201
1104.3812 1257.41185
1104.5405 1249.52717
1104.6997 1252.92680
1104.8590 1246.53714
1105.0183 1257.78049
1105.1775 1250.46924
1105.3367 1255.20005
1105.4959 1251.61610
1105.6551 1263.43288
1105.8143 1234.55652
1105.9735 1257.00226
1106.1326 1241.47866
1106.2917 1262.49082
1106.4508 1249.99821
1106.6099 1244.75541
1106.7690 1248.58511
1106.9281 1250.77643
1107.0872 1246.20946
1107.2462 1259.95133
1107.4052 1250.79691
1107.5642 1251.88234
1107.7232 1245.10356
1107.8822 1247.80688
1108.0412 1240.84379
1108.2001 1251.00171
1108.3591 1244.44821
1108.5180 1247.43825
1108.6769 1247.84784
1108.8358 1253.00872
1108.9947 1247.39729
1109.1535 1257.86241
1109.3124 1250.79691
1109.4712 1255.58916
1109.6300 1254.05318
1109.7888 1257.59617
1109.9476 1237.85375
1110.1064 1264.57974
1110.2651 1250.57164
1110.4239 1251.61610
1110.5826 1249.75245
1110.7413 1258.82495
1110.9000 1241.54010
1111.0587 1260.62716
1111.2173 1242.89175
1111.3760 1258.57920
1111.5346 1253.45927
1111.6932 1259.78750
1111.8518 1248.58511
1112.0104 1254.29894
1112.1690 1248.78990
1112.3276 1257.00226
1112.4861 1246.55762
1112.6446 1255.07717
1112.8032 1248.07312
1112.9617 1257.08418
1113.1201 1251.47274
1113.2786 1254.15558
1113.4371 1248.64655
1113.5955 1258.94783
1113.7539 1241.84729
1113.9123 1257.28897
1114.0707 1244.96020
1114.2291 1263.63768
1114.3875 1245.94323
1114.5458 1257.65761
1114.7042 1242.37976
1114.8625 1244.48917
1115.0208 1238.26335
1115.1791 1257.43233
1115.3374 1250.91979
1115.4956 1254.87237
1115.6539 1237.28032
1115.8121 1254.52422
1115.9703 1244.50965
1116.1285 1245.16500
1116.2867 1239.08253
1116.4449 1249.15854
1116.6030 1252.41481
1116.7612 1250.44876
1116.9193 1239.92220
1117.0774 1257.20706
1117.2355 1243.42423
1117.3936 1250.51020
1117.5516 1247.72496
1117.7097 1250.38732
1117.8677 1247.54064
1118.0257 1258.33344
1118.1837 1247.06961
1118.3417 1260.03325
1118.4997 1258.45632
1118.6577 1243.32183
1118.8156 1251.45226
1118.9735 1243.26039
1119.1315 1244.01814
1119.2894 1260.01277
1119.4472 1242.31832
1119.6051 1255.65060
1119.7630 1241.88825
1119.9208 1252.55817
1120.0786 1240.14748
1120.2364 1258.76351
1120.3942 1241.02810
1120.5520 1246.10707
1120.7098 1255.05669
1120.8675 1258.37440
1121.0253 1251.28843
1121.1830 1258.12864
1121.3407 1242.17497
1121.4984 1258.21056
1121.6560 1255.36388
