# Averages = 100
# wavelength [µm]	intensity
446.8250 14.33578
447.0374 36746.70328
447.2498 1228.51501
447.4621 1223.96852
447.6745 1224.74675
447.8868 1233.22534
448.0992 1244.98068
448.3115 1231.09545
448.5238 1246.55762
448.7360 1238.16095
448.9483 1244.46869
449.1606 1235.15043
449.3728 1268.36849
449.5850 1239.79932
449.7972 1245.77939
450.0094 1241.60153
450.2216 1253.43879
450.4337 1244.81685
450.6459 1693.13768
450.8580 2038.03610
451.0701 2071.19272
451.2822 2087.88366
451.4943 2074.59234
451.7064 2059.15066
451.9184 2054.41985
452.1305 2111.84490
452.3425 2233.49424
452.5545 2152.59947
452.7665 2142.89210
452.9785 2261.98148
453.1905 2302.51079
453.4024 2225.15901
453.6143 2317.99343
453.8263 2309.47388
454.0382 2424.26253
454.2501 2277.40269
454.4619 2264.21377
454.6738 2407.67398
454.8856 2467.80234
455.0975 2321.24970
455.3093 2325.77571
455.5211 2406.09705
455.7329 2358.23602
455.9446 2404.47915
456.1564 2402.06255
456.3681 2470.83334
456.5798 2537.47424
456.7916 2461.24884
457.0033 2469.09256
457.2149 2425.14315
457.4266 2460.08150
457.6382 2520.10747
457.8499 2484.43185
458.0615 2600.44928
458.2731 2514.80323
458.4847 2601.20703
458.6963 2617.79558
458.9078 2654.00366
459.1194 2808.21571
459.3309 2807.17125
459.5424 2667.88889
459.7539 2568.41905
459.9654 2627.52343
460.1769 2688.79865
460.3883 2682.57283
460.5998 2530.98218
460.8112 2517.11743
461.0226 2582.30428
461.2340 2701.29126
461.4454 2636.12490
461.6567 2589.84080
461.8681 2579.15040
462.0794 2539.41981
462.2907 2664.69406
462.5020 2730.22906
462.7133 2832.38174
462.9246 2898.67449
463.1359 2735.86097
463.3471 2493.85251
463.5583 2568.95152
463.7696 2908.50474
463.9808 2764.20486
464.1919 2652.75440
464.4031 2662.66657
464.6143 2806.63877
464.8254 2645.05404
465.0365 2617.95941
465.2476 2733.64917
465.4587 2782.26795
465.6698 2619.51587
465.8809 2585.97014
466.0919 2604.36090
466.3030 2775.96020
466.5140 2750.74971
466.7250 2635.08043
466.9360 2690.10935
467.1469 2631.49649
467.3579 2522.38071
467.5688 2529.67148
467.7798 2626.84760
467.9907 2816.14135
468.2016 2628.91605
468.4125 2618.24613
468.6233 2509.88810
468.8342 2524.98163
469.0450 2794.20760
469.2559 2779.93326
469.4667 2764.55302
469.6775 2553.05928
469.8882 2580.23583
470.0990 2626.95000
470.3098 2796.95188
470.5205 2663.32192
470.7312 2789.98879
470.9419 2905.69902
471.1526 2738.97389
471.3633 2618.02085
471.5739 2659.96325
471.7846 2633.74925
471.9952 2474.23297
472.2058 2538.47775
472.4164 2513.79972
472.6270 2573.57993
472.8376 2611.24208
473.0481 2752.34712
473.2587 2804.20169
473.4692 2723.02021
473.6797 2663.54720
473.8902 2587.17844
474.1007 2515.60193
474.3111 2502.76117
474.5216 2453.50752
474.7320 2561.43548
474.9424 2705.42816
475.1528 2772.39674
475.3632 2594.22345
475.5736 2587.40372
475.7840 2543.08568
475.9943 2557.23714
476.2046 2606.28599
476.4149 2635.26475
476.6252 2717.63405
476.8355 2860.33651
477.0458 2874.32414
477.2561 2910.28647
477.4663 2781.16204
477.6765 2719.53866
477.8867 2677.82154
478.0969 2686.56637
478.3071 2711.32631
478.5173 2664.03871
478.7274 2751.09786
478.9375 2888.84424
479.1477 2891.99811
479.3578 2883.23280
479.5679 2981.06427
479.7779 2836.80535
479.9880 2783.43529
480.1980 2864.18670
480.4081 2929.49642
480.6181 2849.27748
480.8281 2746.10082
481.0381 2875.57340
481.2480 2931.40103
481.4580 2847.68007
481.6679 2851.28449
481.8778 2788.37089
482.0877 2873.89407
482.2976 2890.56453
482.5075 2934.30915
482.7174 2908.40234
482.9272 2916.77853
483.1371 2862.36400
483.3469 2879.77174
483.5567 2975.39140
483.7665 2984.32054
483.9762 2993.20873
484.1860 2966.99473
484.3957 3007.74930
484.6055 2936.78719
484.8152 2978.36095
485.0249 3028.70003
485.2346 2997.01795
485.4442 3027.28693
485.6539 3093.82543
485.8635 3081.41474
486.0732 3019.79136
486.2828 3056.69576
486.4924 3050.28562
486.7019 3044.59226
486.9115 3076.80681
487.1210 3130.68887
487.3306 3138.04108
487.5401 3167.22463
487.7496 3166.32353
487.9591 3253.68987
488.1686 3226.96388
488.3780 3185.45155
488.5875 3223.09322
488.7969 3235.05336
489.0063 3223.46185
489.2157 3287.80903
489.4251 3256.72087
489.6345 3288.38246
489.8438 3277.20055
490.0531 3263.45868
490.2625 3302.63632
490.4718 3278.94133
490.6811 3342.98131
490.8903 3390.22795
491.0996 3385.92721
491.3089 3395.40931
491.5181 3415.68420
491.7273 3433.76776
491.9365 3431.04397
492.1457 3497.68487
492.3549 3490.35314
492.5640 3485.68377
492.7732 3512.69648
492.9823 3520.82692
493.1914 3598.69069
493.4005 3577.73997
493.6096 3571.00215
493.8187 3558.46858
494.0277 3632.52313
494.2368 3627.81280
494.4458 3674.89560
494.6548 3724.00590
494.8638 3746.73835
495.0728 3682.51405
495.2817 3746.47211
495.4907 3715.42491
495.6996 3793.04292
495.9085 3788.59883
496.1174 3830.88938
496.3263 3830.64363
496.5352 3873.28234
496.7440 3881.61757
496.9529 3918.52197
497.1617 3940.35331
497.3705 3929.70388
497.5793 3994.80880
497.7881 3962.61473
497.9969 4024.11524
498.2056 4060.93771
498.4144 4082.76906
498.6231 4091.04285
498.8318 4124.52714
499.0405 4161.71826
499.2492 4094.81112
499.4578 4195.87837
499.6665 4186.76491
499.8751 4279.31262
500.0837 4293.85320
500.2923 4304.72791
500.5009 4282.09786
500.7095 4346.77271
500.9180 4366.04410
501.1266 4425.51711
501.3351 4438.48075
501.5436 4480.93515
501.7521 4469.44604
501.9606 4520.52238
502.1691 4542.33325
502.3775 4551.52863
502.5860 4602.64593
502.7944 4614.05311
503.0028 4686.51025
503.2112 4708.15728
503.4196 4708.85359
503.6279 4816.18763
503.8363 4745.24599
504.0446 4866.21951
504.2529 4894.56339
504.4612 4932.02074
504.6695 4943.96040
504.8778 4948.58881
505.0860 4988.58564
505.2943 5017.48248
505.5025 5101.28536
505.7107 5101.96119
505.9189 5179.21057
506.1271 5222.66847
506.3353 5226.33433
506.5434 5217.07751
506.7516 5316.44496
506.9597 5314.02835
507.1678 5350.64603
507.3759 5405.14248
507.5840 5415.85336
507.7920 5463.77583
508.0001 5459.53653
508.2081 5585.91668
508.4161 5581.61595
508.6241 5648.07254
508.8321 5627.36757
509.0401 5698.71880
509.2480 5728.94682
509.4560 5715.59407
509.6639 5813.42553
509.8718 5850.26849
510.0797 5876.91256
510.2876 5876.70777
510.4955 6044.68216
510.7033 6086.29689
510.9112 6130.20534
511.1190 6158.65163
511.3268 6132.82674
511.5346 6225.35397
511.7424 6246.61188
511.9501 6317.79928
512.1579 6376.78078
512.3656 6431.15435
512.5733 6414.89348
512.7810 6524.45980
512.9887 6606.97246
513.1964 6649.32446
513.4040 6675.86613
513.6117 6710.41537
513.8193 6781.56180
514.0269 6809.82377
514.2345 6897.10820
514.4421 6899.34048
514.6497 6936.20392
514.8572 7041.18280
515.0647 7068.95325
515.2723 7166.66184
515.4798 7187.69448
515.6873 7292.22281
515.8947 7260.31545
516.1022 7315.40581
516.3097 7372.83086
516.5171 7503.28647
516.7245 7515.75860
516.9319 7567.63365
517.1393 7659.73080
517.3467 7709.35308
517.5540 7748.61264
517.7614 7843.94559
517.9687 7780.25376
518.1760 7878.69962
518.3833 7939.11470
518.5906 7960.20877
518.7978 8133.34405
519.0051 8087.34667
519.2123 8238.03622
519.4196 8170.61708
519.6268 8307.23708
519.8340 8358.14958
520.0411 8483.25999
520.2483 8540.82840
520.4554 8557.41694
520.6626 8648.36723
520.8697 8700.56996
521.0768 8849.31393
521.2839 8863.07628
521.4909 8924.98637
521.6980 9118.92901
521.9050 9154.52271
522.1121 9233.04183
522.3191 9290.18016
522.5261 9341.31794
522.7331 9473.84200
522.9400 9619.26826
523.1470 9617.62988
523.3539 9700.42926
523.5608 9736.61687
523.7677 9799.67383
523.9746 9870.51307
524.1815 9960.07074
524.3884 10051.12343
524.5952 10039.69576
524.8020 10229.31719
525.0089 10179.94066
525.2157 10311.03114
525.4225 10382.62813
525.6292 10443.71904
525.8360 10504.56419
526.0427 10638.03031
526.2494 10728.36622
526.4562 10809.95729
526.6629 10823.49436
526.8695 10893.37106
527.0762 11074.96445
527.2829 11076.09083
527.4895 11308.92440
527.6961 11399.03502
527.9027 11492.27904
528.1093 11484.49676
528.3159 11558.30555
528.5224 11620.60476
528.7290 11878.52595
528.9355 11821.40810
529.1420 12074.98759
529.3485 11982.23508
529.5550 12183.85761
529.7615 12186.86812
529.9680 12395.04414
530.1744 12433.46404
530.3808 12572.86927
530.5872 12530.33296
530.7936 12677.62287
531.0000 12763.30988
531.2064 12843.71314
531.4127 12937.77634
531.6191 13058.91369
531.8254 13091.70167
532.0317 13237.84472
532.2380 13254.28991
532.4443 13464.57534
532.6505 13314.64355
532.8568 13578.68816
533.0630 13740.94873
533.2692 13755.22307
533.4754 13854.63147
533.6816 14071.12225
533.8878 14052.91581
534.0939 14298.61062
534.3001 14284.17244
534.5062 14384.09283
534.7123 14455.93558
534.9184 14487.86341
535.1245 14512.43903
535.3306 14658.88928
535.5366 14810.15225
535.7426 14951.35970
535.9487 15172.43792
536.1547 15014.15042
536.3607 15182.22721
536.5666 15193.71632
536.7726 15334.14554
536.9785 15452.55909
537.1845 15668.29212
537.3904 15593.15214
537.5963 15836.53275
537.8022 15897.00927
538.0080 16120.66793
538.2139 16171.88763
538.4197 16312.95172
538.6256 16297.57147
538.8314 16407.46548
539.0372 16486.94715
539.2430 16707.94345
539.4487 16444.18556
539.6545 16894.32909
539.8602 16823.26457
540.0659 16968.50652
540.2716 17294.60458
540.4773 17256.75812
540.6830 17553.34495
540.8887 17562.82705
541.0943 17466.79779
541.2999 17531.24737
541.5056 17625.45393
541.7112 17746.50937
541.9167 17746.69368
542.1223 18001.27668
542.3279 18049.91594
542.5334 18142.03357
542.7389 18430.28517
542.9444 18545.31958
543.1499 18632.05105
543.3554 18519.49469
543.5609 18803.28172
543.7663 18913.87203
543.9718 18806.08744
544.1772 19056.92265
544.3826 19054.36269
544.5880 19429.79632
544.7934 19444.91033
544.9987 19478.39462
545.2041 19848.72881
545.4094 19666.93062
545.6147 19852.21035
545.8200 20128.07175
546.0253 20148.30568
546.2306 20327.91254
546.4358 20233.46022
546.6411 20467.76832
546.8463 20438.01134
547.0515 20785.77691
547.2567 20772.17840
547.4619 20907.79489
547.6670 21077.42814
547.8722 21149.55760
548.0773 21507.37870
548.2824 21396.39927
548.4876 21427.89703
548.6926 21700.64551
548.8977 21869.56197
549.1028 22088.65367
549.3078 22079.04870
549.5129 22152.71413
549.7179 22210.26205
549.9229 22363.77779
550.1279 22296.35866
550.3328 22453.39690
550.5378 22317.80089
550.7427 22601.85416
550.9476 22658.39858
551.1526 22369.38923
551.3575 22797.39421
551.5623 22834.40101
551.7672 22793.76931
551.9720 23029.06044
552.1769 22986.93372
552.3817 23303.79545
552.5865 23038.62445
552.7913 23236.39680
552.9961 23189.86695
553.2008 23322.10429
553.4056 23636.44701
553.6103 23563.23213
553.8150 23913.33239
554.0197 23939.89454
554.2244 23824.63486
554.4291 23716.66595
554.6337 24046.36844
554.8384 24071.84517
555.0430 24063.67377
555.2476 23976.77846
555.4522 23924.86245
555.6568 24118.37502
555.8613 24254.03247
556.0659 24448.83525
556.2704 24219.21700
556.4750 24519.71545
556.6795 24546.19569
556.8839 24387.06852
557.0884 24634.62698
557.2929 24646.40280
557.4973 24563.33719
557.7018 24568.86670
557.9062 24629.05650
558.1106 24679.23174
558.3150 24694.48911
558.5193 24863.20077
558.7237 24885.78987
558.9280 24776.53073
559.1323 24726.88797
559.3367 24707.24795
559.5410 24834.83640
559.7452 24487.33707
559.9495 24947.61804
560.1537 24871.53600
560.3580 24865.67881
560.5622 25090.07475
560.7664 25174.73778
560.9706 25118.31624
561.1748 25333.10720
561.3789 25385.33040
561.5831 25319.44725
561.7872 25310.84578
561.9913 25408.06286
562.1954 25296.79672
562.3995 25501.26592
562.6036 25476.03494
562.8076 25209.88092
563.0117 25570.71254
563.2157 25549.76182
563.4197 25699.28401
563.6237 25611.73335
563.8277 25394.66914
564.0316 25314.67548
564.2356 25543.49503
564.4395 25639.21709
564.6434 25641.89993
564.8473 25911.88365
565.0512 25856.62945
565.2551 25862.89624
565.4590 25980.73636
565.6628 26032.44757
565.8666 26134.68217
566.0705 26042.46214
566.2743 25914.99656
566.4780 25952.61775
566.6818 25951.83952
566.8856 26277.24128
567.0893 26010.30903
567.2930 26086.75970
567.4967 25985.59005
567.7004 26150.20577
567.9041 26286.68241
568.1078 26164.52107
568.3114 26213.05793
568.5151 26308.82095
568.7187 25771.00388
568.9223 26236.48670
569.1259 26210.66181
569.3295 26562.11373
569.5330 26494.40788
569.7366 26412.93968
569.9401 26529.98110
570.1436 26557.40340
570.3471 26849.23895
570.5506 26792.96077
570.7541 26632.05186
570.9575 26808.13621
571.1609 26607.41480
571.3644 26874.18321
571.5678 26894.10994
571.7712 27111.87046
571.9746 27045.76203
572.1779 26839.14246
572.3813 26690.64425
572.5846 27116.92894
572.7879 26996.30358
572.9912 27286.17308
573.1945 27252.03344
573.3978 27055.87899
573.6010 27177.73313
573.8043 27444.56298
574.0075 26954.13591
574.2107 27116.25311
574.4139 26941.04939
574.6171 27077.42363
574.8203 26723.37079
575.0234 27004.22922
575.2266 26700.61785
575.4297 26787.26741
575.6328 26848.82935
575.8359 26913.91380
576.0390 26304.06967
576.2420 26487.97726
576.4451 26140.82608
576.6481 26454.45201
576.8512 26760.29566
577.0542 26184.03822
577.2571 26459.22378
577.4601 26420.55813
577.6631 26154.11739
577.8660 26146.78567
578.0689 25758.32695
578.2719 25856.87521
578.4748 25897.26115
578.6776 25696.10966
578.8805 25676.94067
579.0834 25431.24586
579.2862 25690.31391
579.4890 25774.60830
579.6918 25889.68367
579.8946 25411.72872
580.0974 25534.11533
580.3002 25341.81107
580.5029 25167.22173
580.7057 25409.66027
580.9084 24980.91802
581.1111 25311.41921
581.3138 25081.41184
581.5164 24922.01843
581.7191 24822.28236
581.9217 24777.73904
582.1244 24541.64920
582.3270 24478.77656
582.5296 24608.76113
582.7322 24705.22046
582.9347 24599.95487
583.1373 24327.28831
583.3398 24334.04661
583.5424 24217.16903
583.7449 24157.71650
583.9474 24092.63205
584.1498 23864.77505
584.3523 24127.09936
584.5548 23849.94775
584.7572 23864.34497
584.9596 23946.36612
585.1620 24180.87902
585.3644 23718.16096
585.5668 23660.63352
585.7691 23772.28878
585.9715 23609.57766
586.1738 23743.14618
586.3761 23578.14134
586.5784 23747.26260
586.7807 23700.30268
586.9830 23676.21856
587.1852 23530.77182
587.3875 23385.50940
587.5897 23574.10684
587.7919 23451.18776
587.9941 23245.77649
588.1963 23233.14052
588.3984 23124.57770
588.6006 22891.55982
588.8027 23286.83827
589.0048 23130.06626
589.2069 23079.01040
589.4090 23249.33996
589.6111 23313.76905
589.8131 23313.56426
590.0152 23421.59461
590.2172 23087.85762
590.4192 23431.95733
590.6212 23151.59041
590.8232 22961.82563
591.0252 23222.16341
591.2271 23229.65898
591.4291 23212.82468
591.6310 23071.22812
591.8329 23003.11268
592.0348 23138.40149
592.2367 23060.37388
592.4385 23295.17350
592.6404 23504.23015
592.8422 23559.19763
593.0440 23631.85956
593.2458 23769.54450
593.4476 23743.49434
593.6494 23805.54779
593.8512 23920.31596
594.0529 23890.19034
594.2546 23893.22133
594.4563 23831.70035
594.6580 23744.96888
594.8597 23743.43290
595.0614 23730.55117
595.2630 23987.01830
595.4647 23990.76608
595.6663 23857.03372
595.8679 24001.29264
596.0695 24246.63930
596.2711 24065.61934
596.4727 24124.90804
596.6742 24226.30297
596.8757 24378.69233
597.0773 24435.95353
597.2788 24184.38105
597.4802 24383.73033
597.6817 24532.24902
597.8832 24349.22205
598.0846 24493.50145
598.2860 24385.14343
598.4875 24168.85745
598.6889 24581.80987
598.8902 24573.67943
599.0916 24698.25737
599.2930 24530.65161
599.4943 24750.60345
599.6956 24753.96212
599.8969 24631.08399
600.0982 24539.51931
600.2995 24377.81170
600.5008 24800.26669
600.7020 24612.48844
600.9032 24807.55746
601.1045 24845.50632
601.3057 24705.77341
601.5068 24974.18020
601.7080 25077.76646
601.9092 24728.62875
602.1103 25131.05460
602.3115 25055.95559
602.5126 25021.83643
602.7137 24880.91570
602.9147 24991.89513
603.1158 25137.91530
603.3169 25218.54383
603.5179 25317.80888
603.7189 25085.36442
603.9199 25254.36280
604.1209 25029.82351
604.3219 25113.66735
604.5229 25295.50650
604.7238 25267.51076
604.9247 25247.74786
605.1257 25264.68457
605.3266 25360.59094
605.5275 25217.17169
605.7283 25289.28067
605.9292 25462.86650
606.1300 24962.46582
606.3309 25050.77423
606.5317 25314.88028
606.7325 25545.87067
606.9332 25475.40007
607.1340 25426.22834
607.3348 25369.58153
607.5355 25252.02812
607.7362 25501.67551
607.9369 25099.02437
608.1376 25359.93559
608.3383 25253.01114
608.5390 25380.08760
608.7396 25298.20981
608.9402 25548.73783
609.1409 25549.47510
609.3415 25296.36664
609.5421 25271.91390
609.7426 25296.16185
609.9432 25212.05177
610.1437 24937.13244
610.3443 25447.83441
610.5448 25245.20838
610.7453 25353.38209
610.9457 25163.61731
611.1462 25207.89439
611.3467 25082.33343
611.5471 25289.54691
611.7475 25035.14823
611.9479 25360.85718
612.1483 24988.45454
612.3487 25341.48339
612.5491 24926.87212
612.7494 25385.90384
612.9497 24925.27470
613.1501 25096.03434
613.3504 25019.21503
613.5506 25480.15136
613.7509 25142.85090
613.9512 24827.44324
614.1514 24794.55286
614.3516 25174.55346
614.5519 24972.33703
614.7521 25109.48949
614.9522 24899.24502
615.1524 24716.01326
615.3526 24898.24152
615.5527 25117.29225
615.7528 24744.15235
615.9529 24718.71658
616.1530 24846.50983
616.3531 25041.18974
616.5532 25033.81705
616.7532 24641.11904
616.9532 24623.52699
617.1533 24404.90633
617.3533 24561.41210
617.5532 24365.25765
617.7532 24399.76592
617.9532 24143.76983
618.1531 24548.20270
618.3530 24029.24742
618.5530 24158.04417
618.7528 24172.13420
618.9527 24167.56723
619.1526 23897.35823
619.3524 23835.18190
619.5523 23872.96692
619.7521 23797.04872
619.9519 23801.92289
620.1517 23767.00502
620.3515 23795.12363
620.5512 23812.18321
620.7510 23665.65105
620.9507 23402.95809
621.1504 23265.45747
621.3501 23398.67784
621.5498 23492.43385
621.7495 23303.30393
621.9492 23270.98699
622.1488 22879.12865
622.3484 22815.74401
622.5480 22621.92425
622.7476 23082.65578
622.9472 22639.06575
623.1468 22597.57390
623.3463 23160.78579
623.5459 22926.49816
623.7454 22609.00157
623.9449 22619.11853
624.1444 22620.47019
624.3439 22690.71552
624.5433 22348.29515
624.7428 22336.37597
624.9422 22095.90348
625.1416 22062.84926
625.3410 21902.49331
625.5404 21947.54862
625.7398 21684.91711
625.9391 21751.66041
626.1385 21445.63244
626.3378 21429.02341
626.5371 21696.18094
626.7364 21243.53888
626.9357 21261.13094
627.1350 21118.91999
627.3342 20977.18007
627.5335 20865.56577
627.7327 20845.00417
627.9319 20802.05826
628.1311 21129.42607
628.3303 20617.53628
628.5294 20627.65324
628.7286 20646.26928
628.9277 20641.39511
629.1268 20423.22500
629.3259 20512.02493
629.5250 20413.74291
629.7241 20273.37513
629.9231 19830.62476
630.1222 20102.75885
630.3212 20024.34213
630.5202 19713.00992
630.7192 19708.72966
630.9182 19476.08041
631.1171 19409.33711
631.3161 19259.58964
631.5150 19019.67010
631.7140 19121.88422
631.9129 19086.74107
632.1118 19074.20751
632.3106 19013.83339
632.5095 18886.79789
632.7083 18629.69589
632.9072 18610.54738
633.1060 18605.12026
633.3048 18285.73954
633.5036 18247.64732
633.7023 18215.22797
633.9011 18199.72485
634.0998 18344.06569
634.2986 17949.19683
634.4973 17938.38356
634.6960 17820.40008
634.8947 17706.63541
635.0933 17615.43937
635.2920 17546.05418
635.4906 17293.37580
635.6892 17282.33725
635.8878 17331.07890
636.0864 17302.87838
636.2850 16970.18585
636.4836 16919.49863
636.6821 16771.81960
636.8806 16782.40760
637.0792 16759.63418
637.2777 16587.76865
637.4761 16443.91932
637.6746 16271.29604
637.8731 16471.21875
638.0715 16180.48910
638.2699 16197.75348
638.4683 16127.03712
638.6667 15893.13861
638.8651 15923.53046
639.0635 15830.71652
639.2618 15719.14318
639.4602 15636.26189
639.6585 15444.61297
639.8568 15509.82030
640.0551 15301.97195
640.2534 15123.24571
640.4516 15157.36487
640.6499 15095.08614
640.8481 15170.49235
641.0463 15031.27144
641.2445 15016.52606
641.4427 14862.82601
641.6409 14761.57443
641.8390 14711.89071
642.0372 14774.18992
642.2353 14621.75961
642.4334 14502.73166
642.6315 14511.47649
642.8296 14327.67129
643.0277 14134.22017
643.2257 14310.26356
643.4237 14164.44818
643.6218 13963.23525
643.8198 13918.85577
644.0178 13826.43094
644.2157 13739.35131
644.4137 13692.47331
644.6116 13868.16855
644.8096 13855.43018
645.0075 13479.46408
645.2054 13522.81958
645.4033 13370.02063
645.6011 13252.56962
645.7990 13180.23536
645.9968 13278.31259
646.1947 13299.98010
646.3925 13289.12586
646.5903 13214.35452
646.7881 13185.08905
646.9858 12990.38866
647.1836 12927.76177
647.3813 12780.38994
647.5790 12798.69878
647.7767 12964.85049
647.9744 12744.75529
648.1721 12773.22205
648.3698 12773.81596
648.5674 12545.52889
648.7650 12625.50207
648.9627 12442.20886
649.1603 12653.12917
649.3578 12558.28773
649.5554 12464.40885
649.7530 12474.50533
649.9505 12329.42723
650.1480 12398.66905
650.3455 12359.22517
650.5430 12108.69715
650.7405 12101.24255
650.9380 12127.14935
651.1354 12141.93569
651.3329 12115.82408
651.5303 12195.59247
651.7277 12194.85520
651.9251 12121.45600
652.1225 11980.71959
652.3198 11898.39124
652.5172 11932.85856
652.7145 11946.17035
652.9118 11957.18842
653.1091 11931.01538
653.3064 11969.25096
653.5037 11939.49398
653.7009 11766.11294
653.8982 11856.01877
654.0954 11967.98122
654.2926 11929.68420
654.4898 11957.47514
654.6870 11908.16005
654.8841 11971.17605
655.0813 11858.88592
655.2784 11978.32346
655.4755 11954.75134
655.6726 12045.04628
655.8697 11888.08996
656.0668 11943.15984
656.2639 11929.80708
656.4609 11868.55234
656.6579 11864.02633
656.8550 11880.73775
657.0520 11842.70697
657.2490 11736.29452
657.4459 11895.70840
657.6429 11922.47535
657.8398 11903.28589
658.0367 11978.46682
658.2337 11928.70118
658.4305 12054.61030
658.6274 12088.89330
658.8243 12010.21034
659.0211 12009.78026
659.2180 12005.50001
659.4148 12056.45347
659.6116 12081.39773
659.8084 12132.84270
660.0052 12203.98914
660.2019 12150.53715
660.3987 12161.16611
660.5954 12233.37749
660.7921 12271.87930
660.9888 12166.30651
661.1855 12297.68371
661.3822 12320.43664
661.5788 12241.34409
661.7755 12286.41988
661.9721 12283.26601
662.1687 12397.29691
662.3653 12402.41683
662.5619 12463.95829
662.7584 12379.76630
662.9550 12469.09869
663.1515 12606.49692
663.3480 12571.33329
663.5445 12734.41305
663.7410 12587.55321
663.9375 12723.80457
664.1340 12725.23815
664.3304 12851.49542
664.5268 12811.82626
664.7233 12919.85662
664.9197 12902.20312
665.1160 13066.16350
665.3124 12972.89901
665.5088 13091.43544
665.7051 13107.83967
665.9014 13102.96550
666.0977 13094.30259
666.2940 13157.48243
666.4903 13309.46219
666.6866 13436.82537
666.8828 13274.07329
667.0791 13414.01100
667.2753 13696.91740
667.4715 13719.32218
667.6677 13864.97371
667.8639 13929.81240
668.0600 13801.46620
668.2562 13854.40620
668.4523 13930.89783
668.6484 14040.93519
668.8445 13839.06691
669.0406 14155.56000
669.2367 14183.88341
669.4327 14362.03621
669.6287 14367.95484
669.8248 14405.28931
670.0208 14553.27553
670.2168 14500.13074
670.4128 14670.76750
670.6087 14715.45418
670.8047 14797.98732
671.0006 14949.02501
671.1965 14698.53795
671.3924 14866.96290
671.5883 14792.13013
671.7842 15000.10135
671.9801 14862.39593
672.1759 15159.02373
672.3717 15118.45347
672.5675 15518.89280
672.7633 15470.13066
672.9591 15767.47524
673.1549 15872.33124
673.3506 15879.15098
673.5464 15870.24232
673.7421 15978.12931
673.9378 15996.58151
674.1335 15957.13763
674.3292 16200.64111
674.5249 16195.54167
674.7205 15999.18243
674.9161 16213.11324
675.1118 16209.46786
675.3074 16298.45210
675.5030 16365.93267
675.6985 16510.96982
675.8941 16595.46901
676.0896 16756.95135
676.2852 16779.31516
676.4807 16709.90950
676.6762 16855.66344
676.8717 17059.12913
677.0671 17151.22629
677.2626 17419.16204
677.4580 17437.75760
677.6534 17479.47472
677.8489 17482.56715
678.0442 17549.84293
678.2396 17422.37735
678.4350 17688.98192
678.6303 17726.23448
678.8257 17964.88427
679.0210 18037.71004
679.2163 18015.69438
679.4116 18170.68465
679.6069 18089.78989
679.8021 17856.46481
679.9974 18151.18799
680.1926 18320.41165
680.3878 18414.02430
680.5830 18593.89740
680.7782 18566.08598
680.9734 18565.79926
681.1685 18683.33219
681.3636 18758.12401
681.5588 18978.54689
681.7539 18992.47307
681.9490 19036.05385
682.1441 19127.33182
682.3391 19109.57593
682.5342 19511.71507
682.7292 19612.80281
682.9242 19806.82737
683.1192 19895.38154
683.3142 20025.96002
683.5092 20151.25475
683.7041 20310.21809
683.8991 20189.38793
684.0940 20232.14952
684.2889 20155.02301
684.4838 20401.86469
684.6787 20461.52202
684.8736 20312.75757
685.0684 20674.06021
685.2633 20729.02770
685.4581 20894.52405
685.6529 21209.29685
685.8477 21424.86604
686.0425 21308.62333
686.2372 21256.35917
686.4320 21226.56122
686.6267 21272.16949
686.8214 21560.23677
687.0161 21484.48241
687.2108 21728.82556
687.4055 21967.00432
687.6002 22076.57065
687.7948 22151.38295
687.9894 22289.86660
688.1841 22341.72117
688.3787 22386.48976
688.5732 22432.17995
688.7678 22440.67902
688.9624 22357.38813
689.1569 22665.15687
689.3514 22614.71540
689.5459 22480.08194
689.7404 22905.73176
689.9349 22815.53922
690.1294 23108.64450
690.3238 23234.04163
690.5182 23299.53567
690.7127 23312.80651
690.9071 23392.71825
691.1015 23463.33221
691.2958 23876.01840
691.4902 23845.72894
691.6845 24396.14102
691.8789 24186.92053
692.0732 24162.11963
692.2675 24243.99742
692.4618 24536.87743
692.6560 24403.28843
692.8503 24796.23219
693.0445 24770.91930
693.2387 24477.22010
693.4329 24968.89644
693.6271 25028.26705
693.8213 25054.93161
694.0155 25244.40967
694.2096 25154.21713
694.4038 24952.57413
694.5979 25137.42379
694.7920 25320.53267
694.9861 25242.03403
695.1801 25290.81665
695.3742 25364.87120
695.5682 25530.18323
695.7623 25745.65003
695.9563 25686.79140
696.1503 26006.15165
696.3443 25734.42716
696.5382 26219.93911
696.7322 26113.50617
696.9261 26416.09356
697.1201 26113.48569
697.3140 26368.68308
697.5079 26704.63187
697.7017 26374.92938
697.8956 26390.26867
698.0894 26519.43406
698.2833 26754.49991
698.4771 26963.33129
698.6709 27282.58913
698.8647 27090.98118
699.0585 27491.23619
699.2522 27110.02729
699.4460 27206.50710
699.6397 27408.29346
699.8334 27165.75252
700.0271 27571.51657
700.2208 27849.30305
700.4144 28024.56821
700.6081 28146.83195
700.8017 27830.80989
700.9954 28133.92974
701.1890 28008.00015
701.3826 27938.24633
701.5761 27980.88504
701.7697 28102.10431
701.9632 27961.55221
702.1568 28507.43828
702.3503 28560.19396
702.5438 28529.96594
702.7373 27975.60128
702.9308 28702.56875
703.1242 28769.02533
703.3177 28752.51870
703.5111 28931.71597
703.7045 28987.56408
703.8979 29353.18794
704.0913 29628.66022
704.2847 29641.86961
704.4780 29591.79678
704.6713 29284.68338
704.8647 29349.95215
705.0580 29259.43193
705.2513 29232.54210
705.4445 29395.72425
705.6378 29491.65111
705.8311 29108.29184
706.0243 29182.83790
706.2175 29722.43670
706.4107 29774.18887
706.6039 30194.84166
706.7971 30161.39833
706.9902 30244.38202
707.1834 30403.67303
707.3765 30106.20557
707.5696 30018.06099
707.7627 30206.67892
707.9558 30208.70640
708.1489 29992.46138
708.3419 29866.59322
708.5349 30114.97088
708.7280 30077.53401
708.9210 30668.68019
709.1140 30741.89507
709.3069 30488.41798
709.4999 30225.76598
709.6929 30662.39292
709.8858 30380.94058
710.0787 30699.99363
710.2716 30364.24963
710.4645 30769.80888
710.6574 30744.88510
710.8502 30998.95611
711.0431 30539.55576
711.2359 30681.23423
711.4287 30610.90699
711.6215 30854.02136
711.8143 30786.99134
712.0071 30752.03251
712.1998 31111.94254
712.3925 31024.43284
712.5853 31352.64031
712.7780 31337.54678
712.9707 31301.07246
713.1633 31336.42040
713.3560 31682.11752
713.5487 31464.56180
713.7413 31712.89849
713.9339 31837.84507
714.1265 31702.59721
714.3191 31722.64682
714.5117 31452.37639
714.7042 31925.96916
714.8968 32130.00829
715.0893 32666.10507
715.2818 32485.00319
715.4743 32561.16715
715.6668 32172.50364
715.8592 32219.23829
716.0517 32259.31703
716.2441 32420.98369
716.4366 32186.98278
716.6290 32441.07426
716.8214 32545.70498
717.0137 32589.26528
717.2061 32664.77389
717.3984 32669.87333
717.5908 32432.12464
717.7831 32372.50827
717.9754 32752.03784
718.1677 32099.71883
718.3600 32418.23941
718.5522 32444.31005
718.7445 32545.02915
718.9367 32338.98302
719.1289 32611.48574
719.3211 32322.59927
719.5133 32383.11675
719.7054 32448.63127
719.8976 32724.98417
720.0897 32631.04384
720.2818 32876.84105
720.4740 33000.19021
720.6660 32844.48315
720.8581 32867.35896
721.0502 32871.02482
721.2422 32936.04783
721.4343 33215.86180
721.6263 33312.60784
721.8183 33371.01591
722.0103 33454.73687
722.2022 33214.75590
722.3942 33566.74028
722.5861 33159.15354
722.7781 33575.28031
722.9700 33653.14409
723.1619 33471.71453
723.3538 33183.19670
723.5456 33050.83648
723.7375 33446.93411
723.9293 33467.92579
724.1211 33276.25640
724.3129 33060.78960
724.5047 33027.53059
724.6965 33315.22924
724.8883 33416.52178
725.0800 33699.20290
725.2718 33445.23430
725.4635 33583.57459
725.6552 33369.39802
725.8469 33730.68018
726.0385 34084.56918
726.2302 33810.32569
726.4218 33270.52208
726.6135 33394.48563
726.8051 33327.06650
726.9967 33398.04910
727.1882 33769.30487
727.3798 34180.74180
727.5714 33889.78688
727.7629 34056.94208
727.9544 34020.46776
728.1459 33757.16042
728.3374 33725.10971
728.5289 34230.91703
728.7204 33833.65205
728.9118 34247.30078
729.1032 34546.36566
729.2946 34596.90952
729.4860 33833.95925
729.6774 34012.52164
729.8688 34099.68319
730.0602 34000.74582
730.2515 33990.73125
730.4428 34212.87443
730.6341 34007.72940
730.8254 33854.25462
731.0167 34474.66627
731.2080 34145.47577
731.3992 34319.45072
731.5905 34391.19106
731.7817 34243.49156
731.9729 33886.10053
732.1641 34299.11439
732.3553 34030.58473
732.5464 34513.59816
732.7376 34514.64262
732.9287 34537.60035
733.1198 34445.42128
733.3109 34514.25351
733.5020 34490.55851
733.6931 34651.40597
733.8841 34424.79823
734.0752 34592.07632
734.2662 34422.54547
734.4572 34326.63909
734.6482 33993.88513
734.8392 34045.24818
735.0302 34037.60926
735.2211 34294.05591
735.4120 34187.07002
735.6030 34524.18615
735.7939 34413.61632
735.9848 34491.76681
736.1756 34326.94628
736.3665 34203.51521
736.5574 33959.99124
736.7482 34442.24692
736.9390 34204.68255
737.1298 34575.87689
737.3206 34460.45337
737.5114 34664.18530
737.7021 34473.06885
737.8929 34449.57865
738.0836 34313.22489
738.2743 34620.11301
738.4650 34438.62202
738.6557 34079.55166
738.8463 34126.96214
739.0370 34128.04756
739.2276 33886.24389
739.4182 33813.52052
739.6088 34225.63327
739.7994 33865.06789
739.9900 34004.82128
740.1806 34147.31895
740.3711 34340.38096
740.5617 34488.16238
740.7522 34319.67600
740.9427 34195.54861
741.1332 34154.97835
741.3236 34197.37130
741.5141 34357.44054
741.7045 34680.38473
741.8949 34753.00570
742.0854 34264.52420
742.2758 34753.47674
742.4661 34373.84477
742.6565 34263.41829
742.8469 34370.17890
743.0372 34292.19225
743.2275 33809.42458
743.4178 34039.14524
743.6081 34231.32662
743.7984 34047.23471
743.9886 34086.57619
744.1789 34031.67015
744.3691 33942.03056
744.5593 34071.23691
744.7495 33788.90393
744.9397 33913.52283
745.1299 33810.71480
745.3200 33525.04364
745.5102 33821.38472
745.7003 33937.11543
745.8904 33882.39371
746.0805 34127.65845
746.2706 33995.62590
746.4607 34305.21734
746.6507 34347.13926
746.8408 33926.13832
747.0308 34194.58606
747.2208 33798.52939
747.4108 33991.44804
747.6007 33665.41142
747.7907 34181.58146
747.9806 34159.95491
748.1706 34088.09169
748.3605 34198.27241
748.5504 34098.47489
748.7403 34303.43560
748.9302 33923.33260
749.1200 33942.62447
749.3098 34138.47172
749.4997 33914.77209
749.6895 33803.99746
749.8793 33813.43860
750.0691 34364.05548
750.2588 34272.61367
750.4486 34013.40227
750.6383 34025.64912
750.8280 33538.53975
751.0177 33458.81233
751.2074 33516.93368
751.3971 33504.83019
751.5868 33650.07213
751.7764 33265.81176
751.9660 33077.82870
752.1557 33353.07570
752.3453 33967.26153
752.5348 33891.83484
752.7244 33905.02376
752.9140 33898.65458
753.1035 34070.43820
753.2930 33885.15847
753.4825 33791.83253
753.6720 33552.36354
753.8615 33723.32797
754.0510 33655.88836
754.2404 33632.05001
754.4299 33846.82049
754.6193 33758.51208
754.8087 33621.72825
754.9981 33646.20147
755.1875 33339.96870
755.3768 33218.85183
755.5662 33516.97464
755.7555 33475.07320
755.9448 33941.00657
756.1341 33640.42620
756.3234 33208.18192
756.5127 33422.64520
756.7019 33564.44656
756.8912 33645.64852
757.0804 33619.00445
757.2696 33483.10124
757.4588 33214.08007
757.6480 33024.04905
757.8371 32979.66956
758.0263 32847.55510
758.2154 32543.96421
758.4045 32280.86167
758.5936 32258.74360
758.7827 32798.48577
758.9718 33065.13130
759.1609 32943.91203
759.3499 32662.52112
759.5389 32059.66056
759.7280 32245.80044
759.9170 32563.44039
760.1059 32700.85910
760.2949 32636.34808
760.4839 32607.26692
760.6728 32691.45892
760.8617 32656.19290
761.0506 32262.75762
761.2395 32263.78161
761.4284 32186.75750
761.6173 32124.54021
761.8061 32209.36708
761.9950 32221.02002
762.1838 32175.75991
762.3726 32424.21948
762.5614 31925.90772
762.7502 32492.41684
762.9389 32158.88465
763.1277 31971.12687
763.3164 32307.87437
763.5051 32318.29853
763.6938 32382.68667
763.8825 32253.31649
764.0712 32696.84508
764.2598 32447.79160
764.4484 32773.48007
764.6371 32747.40943
764.8257 32389.67025
765.0143 32657.58552
765.2029 32504.56129
765.3914 32851.38480
765.5800 33021.09997
765.7685 32589.79775
765.9570 32401.48703
766.1455 32160.95310
766.3340 32030.70228
766.5225 32139.87950
766.7110 31954.59976
766.8994 31902.86807
767.0878 31794.81724
767.2762 31954.37449
767.4646 31763.09421
767.6530 31892.83303
767.8414 32001.04770
768.0298 31811.73346
768.2181 32015.28108
768.4064 31936.00421
768.5947 31841.42901
768.7830 31525.85751
768.9713 31625.42975
769.1596 31335.64217
769.3478 31311.41470
769.5360 31374.45118
769.7243 31095.41543
769.9125 30886.25639
770.1007 30714.10413
770.2888 30773.04467
770.4770 30654.05769
770.6651 30694.52555
770.8533 30436.05142
771.0414 30413.21656
771.2295 30507.09545
771.4176 30854.47191
771.6056 31052.42857
771.7937 30727.60025
771.9817 30403.03816
772.1698 30801.10185
772.3578 30694.19788
772.5458 30569.41514
772.7337 30256.62887
772.9217 30435.94902
773.1096 30385.77378
773.2976 30604.33301
773.4855 30776.89485
773.6734 30476.02777
773.8613 30666.73462
774.0492 30335.16848
774.2370 30376.43505
774.4249 30804.56291
774.6127 31070.94221
774.8005 30896.47575
774.9883 30709.82388
775.1761 30836.28595
775.3639 30374.96051
775.5516 30592.70055
775.7394 30212.51563
775.9271 30110.85446
776.1148 30038.88884
776.3025 29310.61067
776.4902 29632.24416
776.6778 29551.24700
776.8655 29903.94817
777.0531 30285.30044
777.2407 30035.07961
777.4283 29630.87202
777.6159 30009.17281
777.8035 29837.90118
777.9911 29413.05007
778.1786 29886.06941
778.3661 29742.48632
778.5536 29779.22688
778.7411 30175.77507
778.9286 30395.19444
779.1161 30052.38495
779.3036 29428.02072
779.4910 29475.96367
779.6784 29460.60390
779.8658 29708.38764
780.0532 29415.24139
780.2406 29578.58738
780.4280 29031.16533
780.6153 29315.93539
780.8026 29431.89138
780.9900 29442.21314
781.1773 29127.84994
781.3646 29405.65690
781.5518 29111.81434
781.7391 29446.02236
781.9263 29073.94740
782.1136 28945.96983
782.3008 28679.77485
782.4880 28875.11011
782.6752 28857.10847
782.8623 28817.82843
783.0495 29017.95593
783.2366 28558.14599
783.4237 28696.89587
783.6108 29053.03764
783.7979 28758.70357
783.9850 28863.29333
784.1721 29124.20455
784.3591 28736.74935
784.5462 28751.14657
784.7332 28816.55869
784.9202 28809.67751
785.1072 28579.99782
785.2941 28630.91032
785.4811 28341.49138
785.6681 28419.55995
785.8550 28500.12704
786.0419 28418.47452
786.2288 28161.57732
786.4157 27971.09575
786.6025 28144.45630
786.7894 28232.94903
786.9762 28157.66570
787.1631 27781.37192
787.3499 28154.85998
787.5367 28217.79406
787.7234 27854.13625
787.9102 27935.68637
788.0970 27963.10867
788.2837 28149.16663
788.4704 27755.64944
788.6571 27609.01487
788.8438 27682.08640
789.0305 27557.36510
789.2171 27447.53254
789.4038 27248.28566
789.5904 27295.69613
789.7770 27336.81935
789.9636 27282.26146
790.1502 27575.91970
790.3368 27502.09043
790.5233 27376.14035
790.7099 27224.36538
790.8964 26833.28527
791.0829 26461.61990
791.2694 26496.25105
791.4559 26489.67707
791.6423 26440.73062
791.8288 26549.76448
792.0152 26847.19098
792.2016 26821.07938
792.3880 26953.99255
792.5744 26584.66186
792.7608 26218.07546
792.9471 26459.83817
793.1335 26835.98859
793.3198 26563.93642
793.5061 26637.56090
793.6924 26148.07589
793.8787 26209.02344
794.0650 26167.59303
794.2512 26329.97647
794.4375 26534.05656
794.6237 26702.05143
794.8099 26600.61554
794.9961 26092.41210
795.1823 26072.13720
795.3684 26240.19352
795.5546 25905.39159
795.7407 26018.84906
795.9268 25577.06124
796.1129 25720.68529
796.2990 26211.09188
796.4851 26601.37329
796.6712 26248.05772
796.8572 25890.76909
797.0432 25723.14285
797.2292 25966.58490
797.4152 25854.74532
797.6012 25346.78763
797.7872 25297.63638
797.9731 25489.53105
798.1591 25229.76670
798.3450 25222.02538
798.5309 25495.55208
798.7168 25605.87616
798.9027 25571.18357
799.0885 25456.66116
799.2744 25302.83822
799.4602 25547.93912
799.6460 25496.26887
799.8318 25837.37855
800.0176 25569.99575
800.2034 25545.74780
800.3892 25015.91780
800.5749 24923.96400
800.7606 24972.05031
800.9463 25015.09861
801.1320 25052.61740
801.3177 25082.49727
801.5034 25123.70240
801.6890 25320.67603
801.8747 25066.46167
802.0603 24629.32274
802.2459 24601.90044
802.4315 24628.72883
802.6171 24347.82944
802.8026 24671.22418
802.9882 24760.88425
803.1737 24363.06632
803.3592 24599.58623
803.5447 24778.47630
803.7302 24843.31500
803.9157 24740.01545
804.1012 24781.20010
804.2866 24319.75178
804.4720 24506.26030
804.6574 24362.57481
804.8428 24122.45047
805.0282 24080.46712
805.2136 24149.13551
805.3989 24356.16467
805.5843 24050.79205
805.7696 24007.33415
805.9549 23889.76027
806.1402 23855.51823
806.3255 23609.84390
806.5107 23714.14695
806.6960 24054.15072
806.8812 23680.00731
807.0664 23799.79300
807.2516 23403.57248
807.4368 23277.64289
807.6220 23333.90059
807.8072 23349.62899
807.9923 23370.80498
808.1774 23325.34008
808.3625 23654.40770
808.5476 23603.39280
808.7327 23628.15274
808.9178 23356.32585
809.1028 23387.63929
809.2879 23261.38201
809.4729 23262.38552
809.6579 23063.83495
809.8429 23331.83214
810.0279 23231.95270
810.2128 23238.15805
810.3978 23187.57322
810.5827 23224.88721
810.7676 23391.67379
810.9525 23455.85713
811.1374 23266.27666
811.3223 23137.66422
811.5072 22661.28621
811.6920 22670.09248
811.8768 22958.32360
812.0616 22568.73850
812.2464 22765.65070
812.4312 22637.81649
812.6160 22640.92940
812.8007 22831.20618
812.9855 23048.35230
813.1702 22736.38522
813.3549 22591.83959
813.5396 22421.36667
813.7243 22291.01346
813.9089 22499.04613
814.0936 22586.06432
814.2782 22578.17964
814.4628 22585.71616
814.6474 22600.27722
814.8320 22465.02937
815.0166 22254.17050
815.2012 22484.34171
815.3857 22208.58272
815.5702 22251.40575
815.7547 22280.93745
815.9392 22205.77700
816.1237 21961.84344
816.3082 21615.55241
816.4926 21867.06345
816.6771 21896.06269
816.8615 21651.82193
817.0459 21882.93521
817.2303 21869.84869
817.4147 22052.62990
817.5990 22017.91683
817.7834 21832.75997
817.9677 21723.93091
818.1520 22025.88343
818.3363 21776.17460
818.5206 21519.27740
818.7049 21648.77046
818.8891 21649.20053
819.0734 21606.04983
819.2576 21557.73825
819.4418 21349.52127
819.6260 21359.74063
819.8102 21442.25329
819.9944 21260.72134
820.1785 21100.95930
820.3627 21311.40857
820.5468 21301.08681
820.7309 21110.27756
820.9150 20938.20722
821.0991 20761.52896
821.2831 20986.27305
821.4672 20816.86508
821.6512 20683.93142
821.8352 20771.44113
822.0192 21084.02260
822.2032 20832.26580
822.3872 21037.39035
822.5711 20864.74658
822.7551 20837.20140
822.9390 20971.40480
823.1229 21000.79315
823.3068 21010.84867
823.4907 20638.65083
823.6745 20686.65522
823.8584 20663.36982
824.0422 20579.11638
824.2261 20594.76286
824.4099 20742.17565
824.5937 20868.22813
824.7774 20739.71809
824.9612 20711.92716
825.1449 20593.26785
825.3287 20509.58784
825.5124 20417.44973
825.6961 20655.56706
825.8798 20629.29162
826.0634 20690.17773
826.2471 20466.08899
826.4307 20592.08002
826.6144 20602.70898
826.7980 20681.12571
826.9816 20413.12852
827.1652 20510.26367
827.3487 20408.15195
827.5323 20197.84604
827.7158 20037.96112
827.8993 20350.89075
828.0828 20267.51794
828.2663 19973.71634
828.4498 20161.12596
828.6333 20482.96425
828.8167 20256.90946
829.0001 20255.39396
829.1836 20308.96882
829.3670 20377.41194
829.5504 20575.36860
829.7337 20199.87353
829.9171 20151.68483
830.1004 20165.97965
830.2837 20059.15760
830.4671 19866.89429
830.6504 19642.45740
830.8336 19727.36618
831.0169 19706.47690
831.2002 19960.85510
831.3834 19934.47726
831.5666 19860.54559
831.7498 19966.42557
831.9330 20174.97023
832.1162 20059.71055
832.2993 19880.73856
832.4825 19912.11344
832.6656 19799.98715
832.8487 19644.13673
833.0318 19640.69614
833.2149 19523.92096
833.3980 19685.75145
833.5811 19725.91212
833.7641 19703.89646
833.9471 19583.16870
834.1301 19334.42242
834.3131 19108.22427
834.4961 19320.20951
834.6791 19385.99027
834.8620 19743.77041
835.0450 19653.82362
835.2279 19751.75749
835.4108 19619.97070
835.5937 19758.16763
835.7766 19394.79653
835.9594 19500.08261
836.1423 19454.12619
836.3251 19836.05188
836.5079 19757.32796
836.6907 19386.87090
836.8735 19269.19461
837.0563 19371.10154
837.2390 19311.83332
837.4218 19095.17871
837.6045 19351.62535
837.7872 19513.00529
837.9699 19235.73080
838.1526 19053.13391
838.3352 19148.77405
838.5179 19224.87657
838.7005 19235.64888
838.8831 19303.84624
839.0658 19387.73104
839.2483 19592.85559
839.4309 19536.45453
839.6135 19508.56120
839.7960 19202.08268
839.9786 19304.03056
840.1611 18989.95407
840.3436 19147.75006
840.5261 18951.57514
840.7085 18825.09259
840.8910 18767.44227
841.0734 18834.69756
841.2559 18825.60458
841.4383 18962.08122
841.6207 19206.40389
841.8030 18939.86076
841.9854 18854.39902
842.1678 18758.28785
842.3501 18806.00552
842.5324 18692.93716
842.7147 18827.38631
842.8970 19032.92046
843.0793 18849.03334
843.2615 18840.86195
843.4438 19060.32228
843.6260 19065.40124
843.8082 19012.42029
843.9904 19009.55313
844.1726 18640.30437
844.3548 18467.31245
844.5369 18384.45163
844.7191 18516.79137
844.9012 18432.02595
845.0833 18489.14379
845.2654 18778.05075
845.4475 18899.16762
845.6296 18543.33305
845.8116 18450.60102
845.9936 18434.46303
846.1757 18315.02549
846.3577 18202.89920
846.5397 18233.94641
846.7216 18167.48982
846.9036 18159.99426
847.0855 17895.49909
847.2675 18133.37066
847.4494 18249.22425
847.6313 18358.74962
847.8132 18398.09110
847.9950 18286.23105
848.1769 18205.43868
848.3587 18358.17619
848.5406 18163.06621
848.7224 18151.53615
848.9042 18102.36442
849.0860 18227.80250
849.2677 17999.76118
849.4495 17838.74988
849.6312 17848.64157
849.8129 18060.46298
849.9946 18315.96756
850.1763 18176.45992
850.3580 17935.74168
850.5397 17856.91536
850.7213 17649.14893
850.9029 17690.92749
851.0845 17748.27062
851.2661 17722.26142
851.4477 17749.31508
851.6293 17752.71471
851.8109 17716.69094
851.9924 17763.52799
852.1739 17897.34226
852.3554 17800.16615
852.5369 17825.00801
852.7184 17472.81882
852.8999 17367.38939
853.0813 17414.34931
853.2628 17449.94301
853.4442 17548.40935
853.6256 17422.52071
853.8070 17477.30387
853.9883 17660.08508
854.1697 17507.61381
854.3510 17214.48804
854.5324 17259.93247
854.7137 17252.68266
854.8950 17292.31086
855.0763 17321.08482
855.2575 17267.57139
855.4388 17263.12730
855.6200 17283.23835
855.8013 17284.20090
855.9825 17092.22431
856.1637 17035.55701
856.3449 17127.44937
856.5260 17133.55232
856.7072 17008.11423
856.8883 17200.60282
857.0694 17110.49219
857.2505 17021.85610
857.4316 16967.54397
857.6127 16842.10589
857.7938 16957.63180
857.9748 16791.33674
858.1558 16722.25875
858.3368 16674.64348
858.5178 16654.98298
858.6988 16826.07029
858.8798 16753.03973
859.0607 16910.65140
859.2417 16874.52523
859.4226 16841.38910
859.6035 16847.00053
859.7844 16878.72357
859.9653 16778.37310
860.1462 16636.61270
860.3270 16725.00303
860.5078 16614.33080
860.6887 16685.31340
860.8695 16579.53581
861.0503 16525.77663
861.2310 16223.59884
861.4118 16194.23097
861.5925 16259.41782
861.7733 16267.60969
861.9540 15993.05900
862.1347 15870.36519
862.3154 15832.64161
862.4960 16005.79737
862.6767 16022.48831
862.8573 16034.48941
863.0380 15849.61927
863.2186 15910.40298
863.3992 15718.65167
863.5797 15743.30921
863.7603 15761.92525
863.9409 15845.07278
864.1214 15823.56911
864.3019 15780.04977
864.4824 15643.59361
864.6629 15585.55418
864.8434 15388.31431
865.0238 15469.39339
865.2043 15572.09903
865.3847 15317.61843
865.5651 15258.20685
865.7455 15395.54364
865.9259 15414.38495
866.1063 15233.91795
866.2866 15185.48348
866.4670 15160.55970
866.6473 15107.70163
866.8276 15136.45511
867.0079 15171.35250
867.1882 14981.19860
867.3684 14825.94209
867.5487 14895.42967
867.7289 14928.66820
867.9091 14927.00935
868.0893 14746.74714
868.2695 14472.76988
868.4497 14405.73986
868.6299 14497.50934
868.8100 14495.66617
868.9901 14487.57669
869.1703 14701.05696
869.3504 14696.71526
869.5304 14621.08378
869.7105 14789.03769
869.8906 14645.27029
870.0706 14450.71326
870.2506 14409.61052
870.4306 14431.60571
870.6106 14421.09963
870.7906 14630.34060
870.9706 14525.09548
871.1505 14445.12230
871.3305 14330.84565
871.5104 14268.01396
871.6903 14126.68364
871.8702 14227.75090
872.0500 14232.72746
872.2299 14210.79372
872.4097 14068.91044
872.5896 14061.29200
872.7694 14136.86205
872.9492 14107.30986
873.1290 13734.98914
873.3087 13728.16940
873.4885 14086.78921
873.6682 14051.60511
873.8480 13926.67901
874.0277 13878.06023
874.2074 13607.60548
874.3870 13656.18330
874.5667 13608.50659
874.7463 13802.24443
874.9260 13613.89275
875.1056 13565.92932
875.2852 13532.21975
875.4648 13547.86623
875.6444 13565.37637
875.8239 13678.17848
876.0035 13555.15700
876.1830 13422.81726
876.3625 13352.18282
876.5420 13365.20790
876.7215 13343.94998
876.9010 13229.48901
877.0804 13282.71572
877.2599 13093.48341
877.4393 13327.99631
877.6187 13353.35016
877.7981 13392.65068
877.9775 13273.70466
878.1568 13407.84661
878.3362 13262.72754
878.5155 13268.70761
878.6948 13001.73441
878.8741 13000.36227
879.0534 12957.23205
879.2327 12921.59739
879.4119 12936.83428
879.5912 12793.51742
879.7704 12993.01006
879.9496 13100.99945
880.1288 13077.22253
880.3080 12846.80557
880.4872 12920.32765
880.6663 12914.34758
880.8455 12864.86865
881.0246 12980.45601
881.2037 12928.10993
881.3828 12797.73624
881.5619 12806.03051
881.7409 12802.20081
881.9200 12729.12929
882.0990 12779.91891
882.2780 12667.23967
882.4570 12632.77236
882.6360 12731.48445
882.8150 12546.71671
882.9940 12495.35365
883.1729 12509.32080
883.3518 12729.62080
883.5308 12656.50831
883.7096 12669.94299
883.8885 12480.99739
884.0674 12385.07054
884.2463 12303.52042
884.4251 12388.65448
884.6039 12297.88851
884.7827 12359.40949
884.9615 12293.36250
885.1403 12216.76846
885.3191 12159.63014
885.4978 12051.57930
885.6765 12039.39389
885.8553 12131.83920
886.0340 12253.24279
886.2127 12170.30005
886.3913 11976.84893
886.5700 11842.27690
886.7486 11756.38509
886.9273 11811.63929
887.1059 11756.26221
887.2845 11627.09682
887.4630 11659.16801
887.6416 11732.64913
887.8202 11779.01514
887.9987 11750.40502
888.1772 11781.04263
888.3557 11706.61945
888.5342 11563.05684
888.7127 11729.76150
888.8912 11783.27492
889.0696 11824.97156
889.2481 11604.15957
889.4265 11436.34901
889.6049 11403.31528
889.7833 11340.85223
889.9616 11301.63363
890.1400 11278.88070
890.3183 11171.89481
890.4967 11286.64250
890.6750 11472.45470
890.8533 11322.46147
891.0316 11174.51621
891.2098 11057.51575
891.3881 11051.78144
891.5663 10989.89183
891.7445 11039.14547
891.9227 11026.46855
892.1009 10977.41970
892.2791 11043.11853
892.4573 11042.74990
892.6354 10938.34445
892.8136 11035.80728
892.9917 11018.58387
893.1698 10902.83267
893.3479 10990.58813
893.5259 11039.63699
893.7040 10882.04579
893.8820 10940.06475
894.0601 10837.01096
894.2381 10949.28060
894.4161 10995.66710
894.5941 11113.93729
894.7720 11063.02479
894.9500 11016.74070
895.1279 11065.56427
895.3058 10878.56424
895.4838 10821.03680
895.6616 10754.31398
895.8395 10700.18617
896.0174 10741.59609
896.1952 10794.16745
896.3731 10889.07032
896.5509 10814.93385
896.7287 10746.79793
896.9065 10704.40498
897.0842 10815.99880
897.2620 10712.92453
897.4397 10591.29567
897.6175 10623.01870
897.7952 10727.89518
897.9729 10779.99551
898.1506 10654.78270
898.3282 10555.78389
898.5059 10547.36674
898.6835 10572.16764
898.8611 10608.53956
899.0388 10416.03050
899.2163 10252.58212
899.3939 10239.51608
899.5715 10443.65760
899.7490 10434.05263
899.9266 10312.50568
900.1041 10376.13607
900.2816 10413.24526
900.4591 10329.48334
900.6365 10423.46463
900.8140 10301.03706
900.9914 10281.74519
901.1689 10316.35586
901.3463 10355.22631
901.5237 10383.18108
901.7011 10225.91756
901.8784 10223.99247
902.0558 10067.05663
902.2331 10154.52537
902.4104 10168.39012
902.5878 10170.33569
902.7650 10149.38497
902.9423 10089.03133
903.1196 10184.28236
903.2968 10224.97550
903.4741 10174.94362
903.6513 10078.48429
903.8285 9995.60300
904.0057 10076.74352
904.1828 9975.61482
904.3600 9843.21364
904.5371 9844.34003
904.7143 9890.11213
904.8914 9892.85640
905.0685 9992.12145
905.2456 9914.21672
905.4226 9924.10841
905.5997 10023.39393
905.7767 10082.41639
905.9537 9967.89398
906.1307 9900.55677
906.3077 9843.27508
906.4847 9836.53726
906.6617 9749.41667
906.8386 9898.36544
907.0156 9771.16610
907.1925 9730.20673
907.3694 9729.14178
907.5463 9708.60066
907.7231 9708.06818
907.9000 9740.01650
908.0768 9697.91026
908.2537 9580.50021
908.4305 9530.69361
908.6073 9602.02436
908.7841 9624.01955
908.9608 9517.54565
909.1376 9511.89326
909.3143 9566.94266
909.4910 9534.50283
909.6677 9576.19948
909.8444 9528.46133
910.0211 9531.06225
910.1978 9488.75121
910.3744 9553.38510
910.5510 9576.42475
910.7277 9572.73841
910.9043 9419.50939
911.0808 9395.60959
911.2574 9388.83082
911.4340 9380.47510
911.6105 9241.82762
911.7870 9278.99825
911.9636 9348.07624
912.1401 9272.91578
912.3165 9295.50488
912.4930 9218.43982
912.6695 9154.39983
912.8459 9164.45536
913.0223 9137.07402
913.1987 9111.29009
913.3751 9127.07993
913.5515 9112.76463
913.7279 9142.84929
913.9042 9098.34693
914.0805 8983.31252
914.2568 8969.55017
914.4331 8966.62158
914.6094 8967.07213
914.7857 9021.22042
914.9620 9035.80196
915.1382 8954.41568
915.3144 8896.00762
915.4906 8993.10181
915.6668 9034.49126
915.8430 8939.91607
916.0192 8769.19739
916.1953 8809.62429
916.3715 8838.78737
916.5476 8789.20605
916.7237 8890.02755
916.8998 8823.50952
917.0759 8681.99488
917.2519 8671.42736
917.4280 8794.18261
917.6040 8690.76019
917.7800 8709.10999
917.9560 8659.81538
918.1320 8668.33493
918.3080 8694.79469
918.4839 8645.19288
918.6599 8643.86170
918.8358 8605.21653
919.0117 8613.55177
919.1876 8579.08445
919.3635 8569.43852
919.5394 8676.64968
919.7152 8624.44696
919.8911 8609.27151
920.0669 8572.42855
920.2427 8392.24826
920.4185 8368.79902
920.5942 8372.30105
920.7700 8337.89517
920.9458 8435.93144
921.1215 8447.68678
921.2972 8422.29196
921.4729 8393.94808
921.6486 8248.03030
921.8243 8076.04189
921.9999 8139.20124
922.1756 8140.20475
922.3512 8188.80305
922.5268 8107.76492
922.7024 8232.38382
922.8780 8246.16665
923.0535 8210.28624
923.2291 8151.91913
923.4046 8202.25820
923.5801 8313.95442
923.7557 8243.81149
923.9311 8202.68828
924.1066 8139.13980
924.2821 8211.20782
924.4575 8195.70470
924.6330 8156.93665
924.8084 8066.76459
924.9838 8000.36944
925.1592 8027.01352
925.3345 7998.48531
925.5099 7896.35311
925.6852 7897.45901
925.8606 7951.79162
926.0359 7831.10482
926.2112 7806.09913
926.3864 7776.75173
926.5617 7675.43872
926.7370 7656.92508
926.9122 7627.92585
927.0874 7643.65425
927.2626 7637.32602
927.4378 7621.45426
927.6130 7638.47288
927.7882 7615.33084
927.9633 7509.45085
928.1384 7472.73077
928.3135 7441.82692
928.4886 7367.91573
928.6637 7416.43211
928.8388 7458.78411
929.0139 7424.48063
929.1889 7397.01737
929.3639 7380.08067
929.5389 7403.77567
929.7139 7380.40834
929.8889 7387.84247
930.0639 7416.53451
930.2388 7294.29126
930.4138 7250.15753
930.5887 7259.98778
930.7636 7252.36934
930.9385 7226.89260
931.1134 7184.99116
931.2882 7195.47676
931.4631 7099.11983
931.6379 7059.38924
931.8127 6996.04557
931.9875 7009.74648
932.1623 7014.41585
932.3371 6996.84427
932.5118 6950.84690
932.6866 6931.67791
932.8613 6954.98379
933.0360 6967.04633
933.2107 6935.69193
933.3854 6885.94677
933.5600 6882.50618
933.7347 6767.28746
933.9093 6784.92047
934.0839 6835.79201
934.2586 6867.92464
934.4331 6812.69093
934.6077 6761.65554
934.7823 6702.30541
934.9568 6775.06974
935.1314 6703.82091
935.3059 6715.26905
935.4804 6625.05603
935.6549 6633.10455
935.8293 6645.84291
936.0038 6608.40604
936.1782 6616.06545
936.3526 6639.20749
936.5271 6549.30166
936.7015 6492.88012
936.8758 6504.06203
937.0502 6438.15840
937.2246 6451.67499
937.3989 6542.15425
937.5732 6464.16760
937.7475 6406.18961
937.9218 6375.57247
938.0961 6374.83521
938.2703 6366.47949
938.4446 6296.41848
938.6188 6319.00758
938.7930 6313.96958
938.9672 6289.47587
939.1414 6345.05774
939.3156 6274.71001
939.4897 6236.33108
939.6639 6165.51232
939.8380 6156.17358
940.0121 6132.56050
940.1862 6157.73004
940.3603 6157.64812
940.5344 6179.74570
940.7084 6179.99146
940.8824 6152.71252
941.0565 6132.76530
941.2305 6061.08639
941.4045 5997.84512
941.5784 5970.70953
941.7524 5970.01322
941.9263 6045.62423
942.1003 6036.18309
942.2742 6016.68643
942.4481 5938.47450
942.6220 5959.56858
942.7958 5940.95255
942.9697 5936.18078
943.1435 5881.04946
943.3174 5911.80995
943.4912 5842.83436
943.6650 5842.48621
943.8387 5769.76284
944.0125 5757.88462
944.1863 5823.25578
944.3600 5829.19489
944.5337 5827.84323
944.7074 5868.04486
944.8811 5805.78661
945.0548 5789.40286
945.2284 5698.18633
945.4021 5713.15698
945.5757 5758.76525
945.7493 5694.56143
945.9229 5549.97483
946.0965 5489.15016
946.2701 5476.53467
946.4436 5535.47521
946.6172 5530.31433
946.7907 5512.43557
946.9642 5524.58002
947.1377 5515.58944
947.3112 5475.24445
947.4847 5493.73761
947.6581 5505.55439
947.8315 5534.26691
948.0050 5433.26109
948.1784 5388.61537
948.3518 5414.97273
948.5251 5424.92586
948.6985 5485.73005
948.8718 5448.25223
949.0452 5316.69071
949.2185 5307.41341
949.3918 5298.46379
949.5651 5339.36173
949.7383 5305.40640
949.9116 5295.96527
950.0848 5328.26174
950.2581 5353.18552
950.4313 5359.22702
950.6045 5417.06166
950.7776 5414.01019
950.9508 5297.68556
951.1239 5278.59849
951.2971 5157.35874
951.4702 5195.51240
951.6433 5212.85870
951.8164 5169.05265
951.9895 5171.81740
952.1625 5110.48074
952.3356 5135.48644
952.5086 5105.64753
952.6816 5127.84751
952.8546 5070.95494
953.0276 5039.64150
953.2006 5055.47230
953.3735 5046.46124
953.5465 5089.89865
953.7194 5073.84258
953.8923 5038.76087
954.0652 5028.39815
954.2381 4991.00224
954.4109 4969.84673
954.5838 4956.61685
954.7566 4944.84103
954.9294 4900.09291
955.1022 4895.15730
955.2750 4902.50951
955.4478 4886.80159
955.6206 4932.30746
955.7933 4936.75155
955.9660 4910.06652
956.1388 4950.59582
956.3115 4930.58716
956.4841 4845.43262
956.6568 4800.39779
956.8295 4816.41291
957.0021 4798.82085
957.1747 4780.75777
957.3473 4757.65668
957.5199 4740.51518
957.6925 4727.42866
957.8651 4734.53512
958.0376 4697.83552
958.2102 4689.99180
958.3827 4743.81241
958.5552 4776.72327
958.7277 4740.33087
958.9001 4707.66577
959.0726 4629.53576
959.2450 4609.77286
959.4175 4610.34629
959.5899 4575.94042
959.7623 4552.85981
959.9347 4503.15561
960.1070 4498.62960
960.2794 4501.80395
960.4517 4486.77186
960.6241 4500.61613
960.7964 4519.21168
960.9687 4536.57846
961.1409 4518.59729
961.3132 4507.90689
961.4855 4481.18090
961.6577 4443.47780
961.8299 4428.17947
962.0021 4415.48206
962.1743 4392.46290
962.3465 4340.69025
962.5186 4336.63527
962.6908 4329.18066
962.8629 4320.43583
963.0350 4284.73974
963.2071 4303.82681
963.3792 4314.35337
963.5513 4319.86240
963.7233 4359.16292
963.8954 4349.39411
964.0674 4341.05888
964.2394 4312.69451
964.4114 4271.22315
964.5834 4271.07979
964.7553 4253.09862
964.9273 4258.87389
965.0992 4237.10399
965.2711 4290.28973
965.4430 4256.98976
965.6149 4228.52300
965.7868 4222.78868
965.9587 4206.91693
966.1305 4226.41359
966.3023 4205.83150
966.4741 4198.84793
966.6459 4181.48115
966.8177 4202.26804
966.9895 4187.37930
967.1613 4205.01232
967.3330 4193.05218
967.5047 4142.16015
967.6764 4134.72603
967.8481 4135.13562
968.0198 4109.00354
968.1915 4072.50874
968.3631 4037.65231
968.5347 4046.21282
968.7064 4048.97758
968.8780 4048.93662
969.0496 4027.78110
969.2211 4012.64661
969.3927 4014.44882
969.5642 3959.50182
969.7358 3949.75349
969.9073 3930.87122
970.0788 3976.43852
970.2503 3979.08040
970.4217 3982.39811
970.5932 3959.17415
970.7646 3951.20755
970.9360 3975.57838
971.1074 4000.17448
971.2788 4003.16452
971.4502 3980.18631
971.6216 3912.37806
971.7929 3884.81240
971.9643 3899.98785
972.1356 3932.16144
972.3069 3924.91163
972.4782 3889.68657
972.6494 3876.08805
972.8207 3862.24379
972.9919 3833.18311
973.1632 3811.18793
973.3344 3822.24696
973.5056 3770.35143
973.6768 3764.49424
973.8479 3783.54035
974.0191 3816.86080
974.1902 3826.30193
974.3614 3806.21136
974.5325 3790.68776
974.7036 3753.66048
974.8746 3759.19000
975.0457 3754.58207
975.2167 3741.04500
975.3878 3684.02955
975.5588 3673.46203
975.7298 3675.91959
975.9008 3642.94729
976.0718 3647.73954
976.2427 3643.47976
976.4137 3632.72793
976.5846 3636.37331
976.7555 3618.26927
976.9264 3624.55653
977.0973 3628.26336
977.2682 3641.55467
977.4390 3655.39894
977.6098 3669.71424
977.7807 3652.77754
977.9515 3642.02571
978.1223 3668.26019
978.2930 3617.59344
978.4638 3584.29347
978.6346 3553.77873
978.8053 3508.70294
978.9760 3521.91234
979.1467 3484.02492
979.3174 3498.17638
979.4881 3495.67786
979.6587 3492.44207
979.8294 3496.78376
980.0000 3469.89393
980.1706 3466.16663
980.3412 3444.51960
980.5118 3481.75167
980.6824 3472.37197
980.8529 3481.56735
981.0235 3474.25611
981.1940 3457.64708
981.3645 3427.91057
981.5350 3437.86370
981.7055 3420.41501
981.8759 3407.88144
982.0464 3399.56669
982.2168 3383.10102
982.3872 3412.96040
982.5576 3387.79087
982.7280 3383.67445
982.8984 3382.71190
983.0687 3392.07112
983.2391 3395.98274
983.4094 3368.97003
983.5797 3359.24218
983.7500 3344.16913
983.9203 3313.94111
984.0906 3322.74738
984.2608 3287.01032
984.4311 3308.41160
984.6013 3283.81549
984.7715 3329.15752
984.9417 3333.97025
985.1119 3298.66327
985.2820 3257.25334
985.4522 3244.20778
985.6223 3269.58211
985.7924 3267.06311
985.9625 3290.67619
986.1326 3285.65866
986.3027 3251.84670
986.4727 3266.05960
986.6428 3243.65483
986.8128 3236.63029
986.9828 3206.11556
987.1528 3202.38825
987.3228 3197.84176
987.4928 3209.24895
987.6627 3201.54859
987.8327 3175.33459
988.0026 3186.57794
988.1725 3213.38585
988.3424 3177.19824
988.5123 3177.15728
988.6821 3177.83311
988.8520 3171.09529
989.0218 3128.70234
989.1916 3130.87319
989.3614 3101.89443
989.5312 3105.53981
989.7010 3092.04370
989.8707 3117.56139
990.0405 3104.98686
990.2102 3122.23076
990.3799 3100.03078
990.5496 3072.36272
990.7193 3060.89409
990.8890 3054.77067
991.0586 3047.76661
991.2283 3061.13985
991.3979 3062.71679
991.5675 3079.61253
991.7371 3064.92859
991.9067 3048.36053
992.0762 3025.01368
992.2458 3026.36534
992.4153 3056.32712
992.5848 3053.97196
992.7543 3036.19559
992.9238 3007.46259
993.0933 3012.09100
993.2627 3008.17938
993.4322 3002.32219
993.6016 2994.39655
993.7710 2961.01466
993.9404 2977.11169
994.1098 2952.72038
994.2792 2954.44068
994.4485 2947.27279
994.6179 2956.71392
994.7872 2969.30893
994.9565 2977.68512
995.1258 2974.28550
995.2951 2958.94621
995.4643 2963.04215
995.6336 2982.88696
995.8028 2959.54012
995.9720 2928.63627
996.1412 2935.66080
996.3104 2931.29863
996.4796 2958.24990
996.6487 2936.91007
996.8179 2941.51800
996.9870 2933.92003
997.1561 2904.38832
997.3252 2904.04017
997.4943 2892.46914
997.6634 2901.13205
997.8324 2890.46213
998.0014 2896.60604
998.1705 2880.07893
998.3395 2846.94280
998.5085 2826.81127
998.6774 2837.87030
998.8464 2811.41054
999.0153 2829.47363
999.1843 2831.64447
999.3532 2832.42270
999.5221 2794.10520
999.6910 2815.89559
999.8599 2833.48764
1000.0287 2857.24408
1000.1976 2848.25350
1000.3664 2856.75257
1000.5352 2847.68007
1000.7040 2857.12120
1000.8728 2849.15460
1001.0415 2804.46793
1001.2103 2770.90172
1001.3790 2772.68345
1001.5478 2757.24177
1001.7165 2747.90303
1001.8851 2745.38403
1002.0538 2759.18734
1002.2225 2770.63548
1002.3911 2754.84564
1002.5598 2743.43846
1002.7284 2719.02667
1002.8970 2712.92372
1003.0656 2723.26597
1003.2341 2703.70786
1003.4027 2698.87466
1003.5712 2658.77543
1003.7398 2659.41030
1003.9083 2674.36047
1004.0768 2655.47820
1004.2453 2640.36419
1004.4137 2683.08482
1004.5822 2676.18316
1004.7506 2684.55936
1004.9190 2661.49923
1005.0874 2656.19499
1005.2558 2653.71695
1005.4242 2658.91879
1005.5926 2646.67193
1005.7609 2654.00366
1005.9292 2636.00202
1006.0976 2663.21952
1006.2659 2655.76492
1006.4342 2679.91047
1006.6024 2648.31031
1006.7707 2651.25938
1006.9389 2646.48762
1007.1071 2645.48411
1007.2754 2649.45717
1007.4436 2635.81770
1007.6117 2618.36901
1007.7799 2619.02436
1007.9481 2622.26015
1008.1162 2612.20462
1008.2843 2597.41829
1008.4524 2607.90389
1008.6205 2584.00409
1008.7886 2602.78396
1008.9566 2592.01165
1009.1247 2574.74727
1009.2927 2564.20023
1009.4607 2564.71223
1009.6287 2546.26003
1009.7967 2555.20965
1009.9647 2536.45026
1010.1327 2509.80618
1010.3006 2503.88755
1010.4685 2490.65767
1010.6364 2508.24973
1010.8043 2514.22980
1010.9722 2487.50380
1011.1401 2480.60215
1011.3079 2472.63555
1011.4758 2488.99882
1011.6436 2475.68702
1011.8114 2493.44291
1011.9792 2495.51136
1012.1470 2517.75230
1012.3147 2509.45803
1012.4825 2509.72426
1012.6502 2514.53699
1012.8179 2495.30656
1012.9856 2468.94921
1013.1533 2478.63610
1013.3210 2445.06989
1013.4886 2451.50051
1013.6563 2437.06233
1013.8239 2439.99093
1013.9915 2451.64387
1014.1591 2434.03134
1014.3267 2427.19112
1014.4942 2449.98502
1014.6618 2445.04941
1014.8293 2449.98502
1014.9969 2446.87210
1015.1644 2473.10658
1015.3319 2458.75032
1015.4993 2439.74517
1015.6668 2413.20350
1015.8342 2412.13855
1016.0017 2406.69096
1016.1691 2410.29538
1016.3365 2403.65996
1016.5039 2420.69906
1016.6712 2412.58911
1016.8386 2409.61955
1017.0059 2395.07897
1017.1733 2406.58856
1017.3406 2397.02454
1017.5079 2402.14447
1017.6752 2379.26865
1017.8424 2373.92346
1018.0097 2373.53434
1018.1769 2373.94394
1018.3441 2364.60520
1018.5113 2369.19265
1018.6785 2353.58713
1018.8457 2356.33140
1019.0129 2343.87975
1019.1800 2359.38288
1019.3471 2367.49283
1019.5142 2369.95040
1019.6813 2346.97219
1019.8484 2352.37883
1020.0155 2342.52810
1020.1826 2345.27237
1020.3496 2326.02147
1020.5166 2312.93495
1020.6836 2308.01982
1020.8506 2298.53773
1021.0176 2289.07611
1021.1846 2302.94086
1021.3515 2291.04216
1021.5185 2305.82850
1021.6854 2291.30840
1021.8523 2304.57923
1022.0192 2316.12978
1022.1861 2300.27850
1022.3529 2285.18497
1022.5198 2298.08717
1022.6866 2290.55065
1022.8534 2290.61209
1023.0202 2283.21892
1023.1870 2285.55360
1023.3538 2266.38462
1023.5205 2278.22188
1023.6873 2272.81524
1023.8540 2272.91764
1024.0207 2261.96100
1024.1874 2265.11488
1024.3541 2260.93702
1024.5207 2263.21027
1024.6874 2235.25549
1024.8540 2252.86802
1025.0206 2241.66563
1025.1872 2241.68611
1025.3538 2234.33391
1025.5204 2241.95235
1025.6870 2227.49369
1025.8535 2228.43576
1026.0201 2228.21048
1026.1866 2239.10567
1026.3531 2201.66880
1026.5196 2223.76639
1026.6860 2227.82137
1026.8525 2230.66804
1027.0189 2198.94501
1027.1853 2212.13393
1027.3518 2205.17083
1027.5181 2218.01160
1027.6845 2205.94906
1027.8509 2192.53486
1028.0172 2188.82804
1028.1836 2180.02177
1028.3499 2170.02769
1028.5162 2172.85388
1028.6825 2160.07456
1028.8488 2170.25296
1029.0150 2158.74338
1029.1813 2164.72345
1029.3475 2135.53989
1029.5137 2156.81829
1029.6799 2153.27530
1029.8461 2143.11738
1030.0123 2143.03546
1030.1784 2147.27475
1030.3446 2143.26074
1030.5107 2150.18287
1030.6768 2141.11037
1030.8429 2135.90853
1031.0090 2131.68971
1031.1750 2135.66277
1031.3411 2127.75761
1031.5071 2127.73713
1031.6732 2116.96482
1031.8392 2124.68566
1032.0051 2114.32294
1032.1711 2115.94083
1032.3371 2100.66299
1032.5030 2105.41427
1032.6690 2095.60450
1032.8349 2112.50025
1033.0008 2095.11299
1033.1667 2094.25284
1033.3325 2092.96262
1033.4984 2079.26171
1033.6642 2090.75082
1033.8300 2110.61611
1033.9959 2090.60746
1034.1616 2100.00764
1034.3274 2082.10839
1034.4932 2095.70690
1034.6589 2068.98091
1034.8247 2069.65674
1034.9904 2072.66725
1035.1561 2076.55839
1035.3218 2071.13128
1035.4875 2072.38054
1035.6531 2048.54218
1035.8188 2065.80656
1035.9844 2044.79440
1036.1500 2057.36893
1036.3156 2042.33684
1036.4812 2046.22798
1036.6468 2039.81783
1036.8123 2031.64644
1036.9779 2030.11046
1037.1434 2048.62410
1037.3089 2033.53057
1037.4744 2034.14496
1037.6399 2043.54514
1037.8053 2027.36618
1037.9708 2035.76286
1038.1362 2042.37780
1038.3016 2033.46913
1038.4670 2029.49607
1038.6324 2037.99514
1038.7978 2005.02285
1038.9632 2020.64885
1039.1285 2027.83722
1039.2938 2011.28963
1039.4592 2009.20070
1039.6245 1998.67414
1039.7897 2004.03982
1039.9550 1999.47285
1040.1203 2009.79461
1040.2855 1994.33245
1040.4507 2012.10882
1040.6159 2000.08724
1040.7811 1991.91585
1040.9463 1995.80699
1041.1115 1986.36585
1041.2766 1983.31438
1041.4418 1975.30682
1041.6069 1956.99798
1041.7720 1960.43857
1041.9371 1960.15185
1042.1021 1960.11089
1042.2672 1948.62179
1042.4323 1960.37713
1042.5973 1965.45609
1042.7623 1953.72123
1042.9273 1965.55849
1043.0923 1957.65333
1043.2572 1942.62124
1043.4222 1936.00630
1043.5871 1926.99524
1043.7521 1948.94946
1043.9170 1951.89854
1044.0819 1937.56275
1044.2467 1925.31590
1044.4116 1926.38085
1044.5765 1923.34985
1044.7413 1926.11461
1044.9061 1920.56461
1045.0709 1926.89284
1045.2357 1914.42071
1045.4005 1911.34875
1045.5652 1907.25282
1045.7300 1903.03400
1045.8947 1888.90302
1046.0594 1902.07146
1046.2241 1898.18032
1046.3888 1907.64193
1046.5535 1895.43604
1046.7181 1911.04156
1046.8828 1885.76962
1047.0474 1880.24011
1047.2120 1882.04232
1047.3766 1890.39803
1047.5412 1874.13716
1047.7057 1886.22018
1047.8703 1878.80653
1048.0348 1875.32498
1048.1993 1884.15173
1048.3639 1884.74564
1048.5283 1862.40230
1048.6928 1861.95175
1048.8573 1854.80434
1049.0217 1857.99917
1049.1861 1844.38018
1049.3506 1859.92426
1049.5150 1845.30176
1049.6793 1848.98811
1049.8437 1835.77871
1050.0081 1848.16892
1050.1724 1837.51948
1050.3367 1844.33922
1050.5010 1825.55934
1050.6653 1825.21119
1050.8296 1814.58223
1050.9939 1833.87410
1051.1581 1821.81156
1051.3224 1826.29661
1051.4866 1821.64772
1051.6508 1821.91396
1051.8150 1804.13759
1051.9791 1803.13409
1052.1433 1801.74147
1052.3074 1792.99664
1052.4716 1787.48760
1052.6357 1789.80181
1052.7998 1792.09553
1052.9639 1794.22542
1053.1279 1777.10440
1053.2920 1787.18041
1053.4560 1775.28171
1053.6201 1788.75735
1053.7841 1777.57544
1053.9481 1785.41916
1054.1120 1782.04001
1054.2760 1769.34260
1054.4399 1777.94407
1054.6039 1770.81714
1054.7678 1765.34906
1054.9317 1755.33450
1055.0956 1771.24721
1055.2595 1766.94648
1055.4233 1751.05424
1055.5872 1747.71605
1055.7510 1747.55221
1055.9148 1745.83192
1056.0786 1744.09115
1056.2424 1748.04373
1056.4062 1736.51366
1056.5699 1742.12510
1056.7336 1727.15445
1056.8974 1726.10998
1057.0611 1719.72032
1057.2248 1722.32124
1057.3885 1716.09541
1057.5521 1722.81275
1057.7158 1708.19025
1057.8794 1716.17733
1058.0430 1727.60500
1058.2066 1720.17087
1058.3702 1699.56831
1058.5338 1719.69984
1058.6973 1697.88897
1058.8609 1693.93639
1059.0244 1691.15115
1059.1879 1705.93749
1059.3514 1681.64858
1059.5149 1697.95041
1059.6784 1691.76555
1059.8418 1685.21205
1060.0053 1683.86039
1060.1687 1678.59711
1060.3321 1669.85228
1060.4955 1675.64803
1060.6589 1668.62350
1060.8222 1676.67202
1060.9856 1668.74638
1061.1489 1671.98217
1061.3122 1664.58900
1061.4755 1671.73641
1061.6388 1661.51705
1061.8021 1679.19102
1061.9654 1655.04547
1062.1286 1660.37018
1062.2918 1650.15082
1062.4550 1648.38957
1062.6182 1651.11337
1062.7814 1657.40063
1062.9446 1657.91262
1063.1077 1644.76466
1063.2709 1627.99180
1063.4340 1627.52077
1063.5971 1623.07667
1063.7602 1639.46042
1063.9233 1623.54771
1064.0863 1634.68866
1064.2494 1627.47981
1064.4124 1627.21357
1064.5754 1615.84734
1064.7384 1617.54716
1064.9014 1615.90878
1065.0644 1609.62152
1065.2274 1609.10953
1065.3903 1614.16801
1065.5532 1599.81175
1065.7162 1611.19845
1065.8790 1601.12245
1066.0419 1603.88721
1066.2048 1595.53149
1066.3677 1606.48813
1066.5305 1586.11084
1066.6933 1584.18575
1066.8561 1581.38003
1067.0189 1582.99793
1067.1817 1567.76104
1067.3445 1574.51933
1067.5072 1560.14259
1067.6699 1564.56621
1067.8327 1574.80605
1067.9954 1572.04129
1068.1580 1557.97175
1068.3207 1560.67507
1068.4834 1548.91972
1068.6460 1564.42285
1068.8086 1551.84832
1068.9713 1547.58855
1069.1339 1546.40072
1069.2964 1538.94612
1069.4590 1536.11992
1069.6216 1538.92564
1069.7841 1533.82620
1069.9466 1532.57693
1070.1091 1527.37509
1070.2716 1532.67933
1070.4341 1536.61143
1070.5966 1533.96955
1070.7590 1521.94798
1070.9214 1529.36162
1071.0839 1513.75610
1071.2463 1529.34114
1071.4086 1513.75610
1071.5710 1512.93691
1071.7334 1505.33895
1071.8957 1509.47585
1072.0580 1490.88029
1072.2204 1505.83046
1072.3827 1487.62402
1072.5449 1491.39228
1072.7072 1484.24487
1072.8695 1483.69192
1073.0317 1486.12900
1073.1939 1475.23381
1073.3561 1483.58952
1073.5183 1490.10206
1073.6805 1470.54396
1073.8427 1478.51056
1074.0048 1477.07698
1074.1669 1476.81075
1074.3291 1466.79618
1074.4912 1465.69027
1074.6532 1468.27072
1074.8153 1465.34212
1074.9774 1452.41944
1075.1394 1462.74120
1075.3014 1452.97239
1075.4635 1451.10874
1075.6255 1447.50431
1075.7874 1454.56980
1075.9494 1437.63310
1076.1114 1438.53421
1076.2733 1436.48624
1076.4352 1443.81797
1076.5971 1418.52555
1076.7590 1444.08420
1076.9209 1427.14750
1077.0828 1436.15857
1077.2446 1425.77536
1077.4064 1425.87776
1077.5683 1412.89364
1077.7301 1419.63146
1077.8918 1403.35011
1078.0536 1413.32371
1078.2154 1404.33313
1078.3771 1411.29623
1078.5388 1406.01247
1078.7006 1405.39808
1078.8623 1388.68665
1079.0239 1398.82410
1079.1856 1388.09274
1079.3473 1408.36763
1079.5089 1390.91894
1079.6705 1390.07927
1079.8321 1382.46082
1079.9937 1397.26764
1080.1553 1368.84183
1080.3169 1381.72356
1080.4784 1377.19755
1080.6399 1375.72301
1080.8014 1369.31287
1080.9629 1377.23850
1081.1244 1372.56914
1081.2859 1370.52117
1081.4474 1362.06306
1081.6088 1376.37836
1081.7702 1354.66989
1081.9316 1363.12800
1082.0930 1356.26730
1082.2544 1354.97708
1082.4158 1343.97949
1082.5771 1352.78576
1082.7385 1347.46104
1082.8998 1351.27026
1083.0611 1344.65532
1083.2224 1337.42599
1083.3837 1338.12230
1083.5449 1341.09186
1083.7062 1329.62323
1083.8674 1323.25405
1084.0286 1322.08671
1084.1898 1334.78411
1084.3510 1322.00479
1084.5122 1330.31954
1084.6734 1306.89078
1084.8345 1312.99373
1084.9956 1313.44428
1085.1567 1317.25350
1085.3178 1305.31384
1085.4789 1309.98321
1085.6400 1308.52915
1085.8010 1306.13303
1085.9621 1299.16994
1086.1231 1302.50813
1086.2841 1280.20575
1086.4451 1305.55960
1086.6061 1290.15887
1086.7670 1297.81828
1086.9280 1286.77972
1087.0889 1285.55094
1087.2498 1288.62290
1087.4107 1288.70482
1087.5716 1289.15537
1087.7325 1276.68324
1087.8933 1274.40999
1088.0542 1300.23488
1088.2150 1275.61830
1088.3758 1282.90906
1088.5366 1274.40999
1088.6974 1277.97346
1088.8582 1272.87402
1089.0189 1280.08287
1089.1796 1271.89099
1089.3404 1276.29413
1089.5011 1264.96886
1089.6618 1278.28065
1089.8224 1263.69912
1089.9831 1273.18121
1090.1438 1267.81553
1090.3044 1276.56036
1090.4650 1261.95834
1090.6256 1272.11627
1090.7862 1256.30595
1090.9468 1267.16018
1091.1073 1253.76647
1091.2679 1261.40539
1091.4284 1264.39543
1091.5889 1270.33454
1091.7494 1262.61369
1091.9099 1263.18712
1092.0703 1257.16610
1092.2308 1267.56978
1092.3912 1259.31646
1092.5516 1265.35797
1092.7121 1252.18953
1092.8724 1264.66166
1093.0328 1254.64710
1093.1932 1259.70558
1093.3535 1251.32939
1093.5139 1264.94838
1093.6742 1253.54119
1093.8345 1258.53824
1093.9948 1258.39488
1094.1550 1252.49673
1094.3153 1255.26149
1094.4755 1258.64063
1094.6358 1256.22403
1094.7960 1256.53123
1094.9562 1258.45632
1095.1163 1256.10115
1095.2765 1250.57164
1095.4367 1251.02219
1095.5968 1252.06665
1095.7569 1257.00226
1095.9170 1250.38732
1096.0771 1259.60318
1096.2372 1247.19249
1096.3973 1264.86646
1096.5573 1253.56167
1096.7173 1264.29303
1096.8773 1253.84839
1097.0374 1252.90632
1097.1973 1250.03917
1097.3573 1259.11167
1097.5173 1242.01113
1097.6772 1255.01573
1097.8371 1238.91870
1097.9970 1246.70098
1098.1569 1248.58511
1098.3168 1252.31241
1098.4767 1248.50319
1098.6365 1251.80042
1098.7964 1257.69857
1098.9562 1257.00226
1099.1160 1249.85485
1099.2758 1262.92089
1099.4356 1254.07366
1099.5953 1256.89986
1099.7551 1256.46979
1099.9148 1258.64063
1100.0745 1250.59212
1100.2342 1247.92976
1100.3939 1244.75541
1100.5536 1257.78049
1100.7132 1250.22348
1100.8729 1252.25097
1101.0325 1249.05614
1101.1921 1252.45577
1101.3517 1253.15208
1101.5113 1264.33399
1101.6709 1258.66111
1101.8304 1252.12809
1101.9899 1248.68751
1102.1495 1246.33234
1102.3090 1246.70098
1102.4685 1249.56813
1102.6279 1244.67349
1102.7874 1250.65356
1102.9468 1240.49563
1103.1063 1251.37035
1103.2657 1251.59562
1103.4251 1253.78695
1103.5845 1243.71094
1103.7438 1253.99175
1103.9032 1251.94378
1104.0625 1253.62311
1104.2219 1247.68400
1104.3812 1249.05614
1104.5405 1243.85430
1104.6997 1265.25557
1104.8590 1246.96721
1105.0183 1256.42883
1105.1775 1249.77293
1105.3367 1258.08768
1105.4959 1250.87883
1105.6551 1256.71554
1105.8143 1243.21943
1105.9735 1255.71204
1106.1326 1246.35282
1106.2917 1251.06315
1106.4508 1248.66703
1106.6099 1253.84839
1106.7690 1239.86076
1106.9281 1254.70853
1107.0872 1250.55116
1107.2462 1250.57164
1107.4052 1250.05965
1107.5642 1251.14507
1107.7232 1251.16555
1107.8822 1250.65356
1108.0412 1241.04858
1108.2001 1249.97773
1108.3591 1247.60208
1108.5180 1250.16204
1108.6769 1239.02109
1108.8358 1254.03270
1108.9947 1237.36224
1109.1535 1259.97181
1109.3124 1250.42828
1109.4712 1256.32643
1109.6300 1246.80338
1109.7888 1258.82495
1109.9476 1243.19895
1110.1064 1257.59617
1110.2651 1257.28898
1110.4239 1258.80447
1110.5826 1239.71740
1110.7413 1250.77643
1110.9000 1246.94673
1111.0587 1257.59617
1111.2173 1249.89581
1111.3760 1254.31942
1111.5346 1261.09820
1111.6932 1254.46278
1111.8518 1246.14802
1112.0104 1247.92976
1112.1690 1243.32183
1112.3276 1261.73307
1112.4861 1249.50669
1112.6446 1257.65761
1112.8032 1250.44876
1112.9617 1251.14507
1113.1201 1251.20651
1113.2786 1258.06720
1113.4371 1243.95670
1113.5955 1254.29894
1113.7539 1242.01113
1113.9123 1251.63658
1114.0707 1249.89581
1114.2291 1255.46628
1114.3875 1245.30836
1114.5458 1253.07016
1114.7042 1246.78290
1114.8625 1244.40725
1115.0208 1251.41130
1115.1791 1249.24046
1115.3374 1249.54765
1115.4956 1248.72847
1115.6539 1248.07312
1115.8121 1255.13861
1115.9703 1249.01518
1116.1285 1246.25042
1116.2867 1251.80042
1116.4449 1247.74544
1116.6030 1245.55411
1116.7612 1255.91684
1116.9193 1243.44471
1117.0774 1255.34340
1117.2355 1246.39378
1117.3936 1253.04968
1117.5516 1248.97422
1117.7097 1248.17551
1117.8677 1247.35633
1118.0257 1257.02274
1118.1837 1246.94673
1118.3417 1257.86241
1118.4997 1250.26444
1118.6577 1250.61260
1118.8156 1248.74895
1118.9735 1249.34286
1119.1315 1243.52662
1119.2894 1258.06720
1119.4472 1248.91278
1119.6051 1258.82495
1119.7630 1236.82977
1119.9208 1255.44580
1120.0786 1241.74489
1120.2364 1256.63362
1120.3942 1247.29489
1120.5520 1258.31296
1120.7098 1247.27441
1120.8675 1257.73953
1121.0253 1242.74840
1121.1830 1256.49027
1121.3407 1256.20355
1121.4984 1264.45687
1121.6560 1252.78344
