# Averages = 100
# wavelength [µm]	intensity
446.8250 14.33578
447.0374 36746.70328
447.2498 1224.09140
447.4621 1220.71225
447.6745 1230.44010
447.8868 1234.67940
448.0992 1240.43419
448.3115 1233.65542
448.5238 1252.68105
448.7360 1236.01058
448.9483 1251.53418
449.1606 1242.91223
449.3728 1262.18362
449.5850 1232.65191
449.7972 1249.17902
450.0094 1239.06205
450.2216 1249.69101
450.4337 1249.46573
450.6459 1704.85207
450.8580 2056.34494
451.0701 2085.54898
451.2822 2113.95430
451.4943 2093.53605
451.7064 2083.97204
451.9184 2075.71873
452.1305 2147.93010
452.3425 2251.08629
452.5545 2180.82048
452.7665 2167.28341
452.9785 2294.01172
453.1905 2330.91611
453.4024 2256.49293
453.6143 2340.45965
453.8263 2339.51758
454.0382 2454.77726
454.2501 2302.08071
454.4619 2294.35987
454.6738 2438.82359
454.8856 2497.94844
455.0975 2345.66149
455.3093 2348.79488
455.5211 2444.80365
455.7329 2383.83563
455.9446 2435.81307
456.1564 2438.27063
456.3681 2493.03332
456.5798 2574.21480
456.7916 2505.81264
457.0033 2498.56283
457.2149 2460.49110
457.4266 2484.69809
457.6382 2548.26704
457.8499 2515.33570
458.0615 2647.24537
458.2731 2540.89435
458.4847 2641.63393
458.6963 2668.35992
458.9078 2696.92909
459.1194 2852.98431
459.3309 2867.36105
459.5424 2709.29882
459.7539 2601.53470
459.9654 2663.56768
460.1769 2731.76504
460.3883 2716.99918
460.5998 2582.14044
460.8112 2554.12423
461.0226 2623.75516
461.2340 2749.84860
461.4454 2673.50032
461.6567 2625.63930
461.8681 2617.01735
462.0794 2568.29617
462.2907 2694.67632
462.5020 2768.25984
462.7133 2871.78466
462.9246 2944.32371
463.1359 2776.36980
463.3471 2525.55506
463.5583 2603.66459
463.7696 2956.59105
463.9808 2814.07290
464.1919 2694.45105
464.4031 2694.92208
464.6143 2846.65608
464.8254 2682.73666
465.0365 2649.60053
465.2476 2779.66703
465.4587 2834.08155
465.6698 2647.28633
465.8809 2628.91605
466.0919 2635.89962
466.3030 2830.33377
466.5140 2786.56868
466.7250 2682.83906
466.9360 2735.04179
467.1469 2671.92339
467.3579 2562.04987
467.5688 2564.48695
467.7798 2662.46177
467.9907 2860.15220
468.2016 2668.74904
468.4125 2658.55015
468.6233 2548.73807
468.8342 2573.94856
469.0450 2834.34779
469.2559 2823.20684
469.4667 2822.96108
469.6775 2590.22992
469.8882 2613.59724
470.0990 2673.04977
470.3098 2842.56015
470.5205 2714.78737
470.7312 2847.68007
470.9419 2952.06503
471.1526 2782.18603
471.3633 2651.97617
471.5739 2700.34920
471.7846 2677.61674
471.9952 2514.41411
472.2058 2587.81331
472.4164 2563.01241
472.6270 2616.48488
472.8376 2654.04462
473.0481 2796.68565
473.2587 2862.95791
473.4692 2777.10706
473.6797 2714.25490
473.8902 2625.04538
474.1007 2546.97682
474.3111 2530.92074
474.5216 2493.19716
474.7320 2605.03673
474.9424 2747.65727
475.1528 2819.47954
475.3632 2624.28764
475.5736 2623.18173
475.7840 2579.60096
475.9943 2596.72198
476.2046 2649.43669
476.4149 2681.95844
476.6252 2766.92866
476.8355 2911.96581
477.0458 2906.23149
477.2561 2953.08902
477.4663 2827.91717
477.6765 2777.49618
477.8867 2716.61007
478.0969 2753.04343
478.3071 2761.13291
478.5173 2711.26487
478.7274 2786.99875
478.9375 2933.92003
479.1477 2941.74327
479.3578 2921.87797
479.5679 3032.71404
479.7779 2877.60089
479.9880 2834.65499
480.1980 2912.62116
480.4081 2978.60671
480.6181 2915.63167
480.8281 2792.05724
481.0381 2915.91839
481.2480 2983.64471
481.4580 2895.29534
481.6679 2895.09054
481.8778 2818.37363
482.0877 2928.00140
482.2976 2952.35175
482.5075 2996.50596
482.7174 2967.97775
482.9272 2967.07665
483.1371 2915.34495
483.3469 2932.97797
483.5567 3027.63508
483.7665 3046.23064
483.9762 3039.61570
484.1860 3017.41572
484.3957 3059.35812
484.6055 2989.70670
484.8152 3035.41736
485.0249 3089.58614
485.2346 3059.70627
485.4442 3092.18706
485.6539 3140.72392
485.8635 3143.85731
486.0732 3067.24280
486.2828 3117.33611
486.4924 3111.27413
486.7019 3095.64812
486.9115 3138.51211
487.1210 3187.23329
487.3306 3198.64047
487.5401 3236.71221
487.7496 3238.06387
487.9591 3317.44314
488.1686 3296.57434
488.3780 3260.32529
488.5875 3283.75405
488.7969 3304.17230
489.0063 3295.30460
489.2157 3348.87946
489.4251 3323.38225
489.6345 3345.00880
489.8438 3344.80400
490.0531 3328.93224
490.2625 3370.46505
490.4718 3344.92688
490.6811 3394.38532
490.8903 3457.27845
491.0996 3461.23102
491.3089 3454.63657
491.5181 3492.54447
491.7273 3512.24593
491.9365 3509.21493
492.1457 3556.44109
492.3549 3552.81619
492.5640 3554.65936
492.7732 3576.63406
492.9823 3588.12317
493.1914 3673.62586
493.4005 3678.25427
493.6096 3639.81390
493.8187 3648.55873
494.0277 3720.85202
494.2368 3724.78412
494.4458 3750.05606
494.6548 3776.33150
494.8638 3818.35582
495.0728 3773.15715
495.2817 3821.44825
495.4907 3811.78184
495.6996 3871.76684
495.9085 3867.77330
496.1174 3901.54431
496.3263 3912.45998
496.5352 3948.09464
496.7440 3965.44093
496.9529 4007.44477
497.1617 4025.73313
497.3705 4001.93573
497.5793 4084.01832
497.7881 4071.87387
497.9969 4121.45519
498.2056 4138.80149
498.4144 4172.38817
498.6231 4204.35697
498.8318 4211.42246
499.0405 4243.67797
499.2492 4195.32542
499.4578 4291.96907
499.6665 4296.88419
499.8751 4374.44077
500.0837 4398.40200
500.2923 4401.12580
500.5009 4389.04279
500.7095 4451.81303
500.9180 4484.60101
501.1266 4529.10337
501.3351 4536.94709
501.5436 4579.87252
501.7521 4578.41846
501.9606 4633.63170
502.1691 4615.09758
502.3775 4666.93167
502.5860 4717.25026
502.7944 4726.97811
503.0028 4803.85886
503.2112 4844.71583
503.4196 4829.54039
503.6279 4924.38182
503.8363 4861.50918
504.0446 4979.39026
504.2529 4997.28951
504.4612 5031.42915
504.6695 5052.80994
504.8778 5096.63647
505.0860 5132.41448
505.2943 5143.33016
505.5025 5223.83581
505.7107 5242.16513
505.9189 5313.68020
506.1271 5349.47869
506.3353 5358.73551
506.5434 5350.54364
506.7516 5435.75962
506.9597 5440.26515
507.1678 5494.53632
507.3759 5559.90748
507.5840 5549.72908
507.7920 5604.00025
508.0001 5606.00726
508.2081 5742.27910
508.4161 5726.32542
508.6241 5790.40636
508.8321 5779.18350
509.0401 5853.85244
509.2480 5887.54152
509.4560 5876.99448
509.6639 5956.84478
509.8718 5992.60232
510.0797 6041.38493
510.2876 6039.78752
510.4955 6216.97778
510.7033 6240.20174
510.9112 6336.47675
511.1190 6317.10297
511.3268 6307.76423
511.5346 6401.54072
511.7424 6424.88756
511.9501 6498.69636
512.1579 6541.04835
512.3656 6614.07892
512.5733 6595.70864
512.7810 6731.65280
512.9887 6791.02342
513.1964 6833.02725
513.4040 6847.30160
513.6117 6908.74066
513.8193 6952.93582
514.0269 7023.69315
514.2345 7124.51465
514.4421 7123.26539
514.6497 7160.29266
514.8572 7242.53909
515.0647 7264.51379
515.2723 7370.45521
515.4798 7412.66385
515.6873 7500.48075
515.8947 7475.27025
516.1022 7519.07631
516.3097 7588.37957
516.5171 7717.89311
516.7245 7724.11894
516.9319 7804.95226
517.1393 7885.31456
517.3467 7944.80805
517.5540 7986.68901
517.7614 8060.27253
517.9687 8017.63382
518.1760 8100.69943
518.3833 8192.30507
518.5906 8201.31614
518.7978 8373.30455
519.0051 8335.19185
519.2123 8515.88414
519.4196 8434.35450
519.6268 8552.27654
519.8340 8632.59787
520.0411 8743.72066
520.2483 8807.28961
520.4554 8823.77576
520.6626 8918.20760
520.8697 8983.47636
521.0768 9147.19098
521.2839 9154.60463
521.4909 9214.77395
521.6980 9416.62175
521.9050 9460.34588
522.1121 9512.28237
522.3191 9586.78747
522.5261 9661.49737
522.7331 9749.19140
522.9400 9919.17280
523.1470 9935.92519
523.3539 9999.65798
523.5608 10064.33283
523.7677 10121.79883
523.9746 10207.26057
524.1815 10291.78024
524.3884 10390.84049
524.5952 10360.03904
524.8020 10574.74808
525.0089 10527.17377
525.2157 10641.47090
525.4225 10725.60146
525.6292 10789.17041
525.8360 10887.39099
526.0427 10992.77946
526.2494 11110.31239
526.4562 11204.98998
526.6629 11173.88134
526.8695 11275.54251
527.0762 11458.95859
527.2829 11470.26337
527.4895 11706.23033
527.6961 11785.58912
527.9027 11878.68978
528.1093 11901.54511
528.3159 11978.09819
528.5224 12021.47416
528.7290 12317.09845
528.9355 12260.61547
529.1420 12514.33832
529.3485 12416.99837
529.5550 12620.56646
529.7615 12642.41829
529.9680 12851.14726
530.1744 12883.21845
530.3808 13009.94676
530.5872 12975.13129
530.7936 13147.97985
531.0000 13193.19900
531.2064 13296.53951
531.4127 13378.25346
531.6191 13529.00444
531.8254 13585.03687
532.0317 13724.81073
532.2380 13745.76145
532.4443 13984.14502
532.6505 13770.45996
532.8568 14074.70619
533.0630 14250.19664
533.2692 14236.06565
533.4754 14370.35096
533.6816 14625.11827
533.8878 14610.98729
534.0939 14824.34467
534.3001 14829.66939
534.5062 14934.83259
534.7123 15019.70041
534.9184 15044.05076
535.1245 15064.03894
535.3306 15229.28954
535.5366 15391.71394
535.7426 15526.32692
535.9487 15776.97782
536.1547 15634.70543
536.3607 15788.13925
536.5666 15812.24384
536.7726 15955.62213
536.9785 16048.88663
537.1845 16294.11041
537.3904 16247.99015
537.5963 16499.13256
537.8022 16538.61740
538.0080 16737.49564
538.2139 16831.23117
538.4197 16966.60191
538.6256 16966.27423
538.8314 17098.63445
539.0372 17164.70192
539.2430 17422.54119
539.4487 17136.87003
539.6545 17611.93734
539.8602 17521.62192
540.0659 17680.91293
540.2716 18000.76469
540.4773 17981.18610
540.6830 18274.49619
540.8887 18269.11003
541.0943 18216.12908
541.2999 18249.57241
541.5056 18366.79814
541.7112 18512.24488
541.9167 18478.61723
542.1223 18734.98196
542.3279 18793.06236
542.5334 18917.84509
542.7389 19231.55295
542.9444 19313.94273
543.1499 19421.62493
543.3554 19332.74308
543.5609 19625.68453
543.7663 19746.22797
543.9718 19594.22773
544.1772 19905.99001
544.3826 19891.71567
544.5880 20284.59800
544.7934 20323.07933
544.9987 20363.03520
545.2041 20725.42327
545.4094 20577.74424
545.6147 20774.92268
545.8200 21011.62690
546.0253 21084.12500
546.2306 21300.28810
546.4358 21146.62900
546.6411 21454.25439
546.8463 21408.19557
547.0515 21776.87091
547.2567 21700.21544
547.4619 21881.19443
547.6670 22076.57065
547.8722 22145.11617
548.0773 22545.94461
548.2824 22418.13088
548.4876 22402.68920
548.6926 22740.74740
548.8977 22899.66977
549.1028 23163.57103
549.3078 23114.95225
549.5129 23188.90440
549.7179 23245.96081
549.9229 23424.09313
550.1279 23409.81879
550.3328 23529.13345
550.5378 23391.36659
550.7427 23709.21134
550.9476 23811.81458
551.1526 23464.72483
551.3575 23942.63882
551.5623 23966.08806
551.7672 23922.32297
551.9720 24180.34655
552.1769 24137.40065
552.3817 24506.83373
552.5865 24236.23562
552.7913 24444.96459
552.9961 24366.69123
553.2008 24531.14312
553.4056 24896.74650
553.6103 24781.50730
553.8150 25116.49355
554.0197 25190.40474
554.2244 25026.54676
554.4291 24972.56230
554.6337 25308.83877
554.8384 25317.95223
555.0430 25320.83987
555.2476 25254.95671
555.4522 25229.37758
555.6568 25419.98204
555.8613 25521.13121
556.0659 25804.52913
556.2704 25546.64890
556.4750 25889.35599
556.6795 25939.69507
556.8839 25740.53010
557.0884 25996.07565
557.2929 26024.46049
557.4973 25944.03676
557.7018 25978.36072
557.9062 26027.34813
558.1106 26103.67592
558.3150 26066.17762
558.5193 26253.91491
558.7237 26305.17557
558.9280 26197.88249
559.1323 26153.31869
559.3367 26186.84393
559.5410 26296.77890
559.7452 25911.10542
559.9495 26434.89391
560.1537 26344.45561
560.3580 26317.75010
560.5622 26556.37942
560.7664 26695.25218
560.9706 26650.17638
561.1748 26874.79760
561.3789 26945.45252
561.5831 26915.92081
561.7872 26888.74426
561.9913 27039.63860
562.1954 26866.27805
562.3995 27013.87515
562.6036 27067.45002
562.8076 26780.05856
563.0117 27192.39659
563.2157 27163.00824
563.4197 27329.48762
563.6237 27259.54949
563.8277 27032.24543
564.0316 26854.58415
564.2356 27131.36712
564.4395 27268.31479
564.6434 27288.15961
564.8473 27595.90787
565.0512 27515.25886
565.2551 27561.62488
565.4590 27702.93472
565.6628 27747.00701
565.8666 27870.31521
566.0705 27840.21007
566.2743 27727.55130
566.4780 27767.56861
566.6818 27751.67638
566.8856 28049.18480
567.0893 27791.03834
567.2930 27875.59897
567.4967 27795.48243
567.7004 27986.29168
567.9041 28140.85188
568.1078 27964.39889
568.3114 28088.56724
568.5151 28189.30682
568.7187 27639.93920
568.9223 28127.62200
569.1259 28111.66832
569.3295 28498.55010
569.5330 28483.39513
569.7366 28308.53956
569.9401 28458.92190
570.1436 28466.02836
570.3471 28807.38379
570.5506 28760.95634
570.7541 28588.00538
570.9575 28772.03585
571.1609 28591.87604
571.3644 28884.08022
571.5678 28963.33661
571.7712 29155.41560
571.9746 29098.11343
572.1779 28912.91562
572.3813 28774.86204
572.5846 29242.37235
572.7879 29055.61808
572.9912 29466.76829
573.1945 29450.28214
573.3978 29189.43236
573.6010 29322.93944
573.8043 29610.33090
574.0075 29134.07576
574.2107 29279.72730
574.4139 29059.69354
574.6171 29241.73748
574.8203 28928.76690
575.0234 29208.51943
575.2266 28899.60382
575.4297 29024.87807
575.6328 29113.47320
575.8359 29202.98991
576.0390 28513.50027
576.2420 28768.94341
576.4451 28443.76694
576.6481 28773.48990
576.8512 29129.93887
577.0542 28478.29569
577.2571 28803.59505
577.4601 28781.90706
577.6631 28509.36337
577.8660 28499.96320
578.0689 28036.20068
578.2719 28224.22469
578.4748 28217.89646
578.6776 28025.24404
578.8805 28061.39069
579.0834 27776.64112
579.2862 28069.41873
579.4890 28128.78934
579.6918 28315.07258
579.8946 27831.58812
580.0974 27972.77508
580.3002 27766.95422
580.5029 27604.98038
580.7057 27856.40950
580.9084 27481.03731
581.1111 27785.50882
581.3138 27553.76068
581.5164 27377.71728
581.7191 27247.03640
581.9217 27265.14044
582.1244 27015.34969
582.3270 26977.76947
582.5296 27149.08205
582.7322 27297.76458
582.9347 27146.50161
583.1373 26862.44835
583.3398 26910.53465
583.5424 26806.12920
583.7449 26719.07005
583.9474 26636.76219
584.1498 26493.40438
584.3523 26787.53365
584.5548 26441.91844
584.7572 26505.36451
584.9596 26617.92088
585.1620 26852.92529
585.3644 26367.92533
585.5668 26327.74418
585.7691 26464.83521
585.9715 26323.60729
586.1738 26515.82963
586.3761 26299.07262
586.5784 26522.26026
586.7807 26435.95885
586.9830 26425.26846
587.1852 26328.56337
587.3875 26195.28157
587.5897 26441.69317
587.7919 26289.54957
587.9941 26082.62280
588.1963 26063.90437
588.3984 25991.44724
588.6006 25760.62068
588.8027 26239.51769
589.0048 26110.47518
589.2069 26035.54000
589.4090 26214.51199
589.6111 26350.72239
589.8131 26361.22847
590.0152 26483.10309
590.2172 26149.09987
590.4192 26532.72538
590.6212 26269.15180
590.8232 26025.01344
591.0252 26393.72974
591.2271 26398.66534
591.4291 26399.73029
591.6310 26271.46600
591.8329 26258.07229
592.0348 26406.18139
592.2367 26356.49767
592.4385 26675.55072
592.6404 26873.69169
592.8422 26985.89990
593.0440 27145.55955
593.2458 27303.99041
593.4476 27294.34448
593.6494 27393.69144
593.8512 27546.24463
594.0529 27529.88136
594.2546 27574.05605
594.4563 27560.88761
594.6580 27429.44897
594.8597 27506.37068
595.0614 27508.19337
595.2630 27778.11565
595.4647 27810.04349
595.6663 27725.52382
595.8679 27915.22716
596.0695 28193.73043
596.2711 28028.70511
596.4727 28145.72604
596.6742 28321.66704
596.8757 28509.69105
597.0773 28605.26975
597.2788 28350.19524
597.4802 28628.53468
597.6817 28790.07845
597.8832 28629.55866
598.0846 28799.21239
598.2860 28738.40820
598.4875 28504.93976
598.6889 29034.13489
598.8902 29126.29348
599.0916 29291.29832
599.2930 29129.24256
599.4943 29380.95840
599.6956 29432.09618
599.8969 29390.72721
600.0982 29246.48877
600.2995 29093.25975
600.5008 29600.35729
600.7020 29488.25148
600.9032 29729.52268
601.1045 29795.83590
601.3057 29736.48577
601.5068 30033.44124
601.7080 30190.31565
601.9092 29889.05944
602.1103 30439.24625
602.3115 30326.50557
602.5126 30326.17789
602.7137 30186.13779
602.9147 30379.67084
603.1158 30621.31067
603.3169 30745.92957
603.5179 30923.85709
603.7189 30733.60080
603.9199 30921.09233
604.1209 30780.84743
604.3219 30876.71285
604.5229 31102.46045
604.7238 31107.33461
604.9247 31169.26519
605.1257 31232.50646
605.3266 31399.39544
605.5275 31252.98615
605.7283 31430.31976
605.9292 31748.08260
606.1300 31166.04988
606.3309 31367.71336
606.5317 31757.35989
606.7325 32047.63898
606.9332 32007.72407
607.1340 32020.58532
607.3348 32047.53659
607.5355 31891.82952
607.7362 32352.86825
607.9369 31934.46823
608.1376 32300.93176
608.3383 32246.88586
608.5390 32433.41486
608.7396 32403.10492
608.9402 32761.95000
609.1409 32808.39794
609.3415 32594.46712
609.5421 32570.21917
609.7426 32711.67237
609.9432 32662.43920
610.1437 32363.14905
610.3443 33124.97295
610.5448 32912.51667
610.7453 33157.67901
610.9457 32955.07346
611.1462 33078.01302
611.3467 32974.50868
611.5471 33379.31018
611.7475 33027.71491
611.9479 33592.81093
612.1483 33102.85488
612.3487 33722.69310
612.5491 33273.65548
612.7494 33964.31246
612.9497 33527.60360
613.1501 33762.01410
613.3504 33766.17148
613.5506 34434.85376
613.7509 34023.99027
613.9512 33710.05714
614.1514 33758.63496
614.3516 34312.59002
614.5519 34094.29703
614.7521 34475.44450
614.9522 34211.93236
615.1524 34056.77825
615.3526 34463.46388
615.5527 34837.99641
615.7528 34423.52849
615.9529 34470.77513
616.1530 34754.41880
616.3531 35062.12611
616.5532 35199.19665
616.7532 34838.71320
616.9532 34860.60598
617.1533 34618.47464
617.3533 34927.39024
617.5532 34757.79795
617.7532 34937.48673
617.9532 34710.01884
618.1531 35407.14740
618.3530 34739.12048
618.5530 35081.72517
618.7528 35141.13674
618.9527 35246.21802
619.1526 35010.47633
619.3524 34972.32268
619.5523 35166.92067
619.7521 35251.07170
619.9519 35364.87733
620.1517 35439.62819
620.3515 35567.13472
620.5512 35701.05140
620.7510 35538.56556
620.9507 35292.87075
621.1504 35228.72836
621.3501 35439.62819
621.5498 35804.45334
621.7495 35640.80016
621.9492 35830.79022
622.1488 35286.13293
622.3484 35389.30959
622.5480 35288.38569
622.7476 36070.73024
622.9472 35486.44475
623.1468 35462.87263
623.3463 36525.11306
623.5459 36334.85677
623.7454 36024.87622
623.9449 36096.61656
624.1444 36128.25768
624.3439 36334.18094
624.5433 36003.37254
624.7428 36115.33500
624.9422 35899.76580
625.1416 35916.96874
625.3410 35817.49890
625.5404 36072.57341
625.7398 35879.24516
625.9391 36101.36785
626.1385 35795.07364
626.3378 35869.25107
626.5371 36422.24359
626.7364 35760.09434
626.9357 35969.72442
627.1350 36013.65335
627.3342 35987.68510
627.5335 35875.57929
627.7327 35997.88399
627.9319 36056.37398
628.1311 36809.39160
628.3303 36104.00973
628.5294 36169.79048
628.7286 36345.40380
628.9277 36610.55432
629.1268 36421.58824
629.3259 36700.25535
629.5250 36679.42751
629.7241 36648.01167
629.9231 35944.92352
630.1222 36721.77950
630.3212 36651.12458
630.5202 36225.18804
630.7192 36477.41587
630.9182 36079.18835
631.1171 36252.26219
631.3161 36134.34015
631.5150 35864.92986
631.7140 36204.05300
631.9129 36358.63368
632.1118 36411.75799
632.3106 36480.30351
632.5095 36415.83345
632.7083 36126.04587
632.9072 36265.53302
633.1060 36374.52592
633.3048 35906.46266
633.5036 35982.27847
633.7023 36071.05791
633.9011 36436.14930
634.0998 36673.57032
634.2986 36205.97809
634.4973 36431.88952
634.6960 36240.93692
634.8947 36158.52666
635.0933 36123.03536
635.2920 36059.22065
635.4906 35762.96149
635.6892 36075.42008
635.8878 36173.29251
636.0864 36312.24719
636.2850 35901.69090
636.4836 35901.60898
636.6821 35688.92742
636.8806 35935.31854
637.0792 36070.34112
637.2777 36007.71424
637.4761 35726.95820
637.6746 35687.10473
637.8731 36211.91720
638.0715 35729.84584
638.2699 35983.67108
638.4683 35904.14846
638.6667 35602.17547
638.8651 35745.81999
639.0635 35845.82231
639.2618 35657.42966
639.4602 35736.27646
639.6585 35391.95147
639.8568 35766.05393
640.0551 35519.84712
640.2534 35310.83143
640.4516 35575.01940
640.6499 35511.26613
640.8481 35827.49299
641.0463 35762.24470
641.2445 35892.90511
641.4427 35509.85303
641.6409 35515.03440
641.8390 35483.59808
642.0372 35635.68023
642.2353 35399.65184
642.4334 35256.70362
642.6315 35385.95092
642.8296 35218.75476
643.0277 34910.47402
643.2257 35489.06615
643.4237 35237.94422
643.6218 34887.65965
643.8198 35000.93280
644.0178 34956.94243
644.2157 34690.05114
644.4137 34714.56533
644.6116 35559.20908
644.8096 35531.19287
645.0075 34709.36349
645.2054 34971.95404
645.4033 34720.05389
645.6011 34535.08135
645.7990 34437.67995
645.9968 34712.53784
646.1947 34676.10448
646.3925 34801.13297
646.5903 34488.65390
646.7881 34681.01960
646.9858 34217.40044
647.1836 34042.23767
647.3813 33827.01663
647.5790 33972.72961
647.7767 34597.64679
647.9744 33923.68076
648.1721 34013.25891
648.3698 34268.19006
648.5674 33684.33465
648.7650 33898.61362
648.9627 33534.62813
649.1603 34309.80479
649.3578 34070.17196
649.5554 34053.66533
649.7530 34072.28137
649.9505 33502.24975
650.1480 33743.50047
650.3455 33699.69442
650.5430 32995.70516
650.7405 33005.37157
650.9380 33110.28901
651.1354 33290.22354
651.3329 33043.83242
651.5303 33327.33274
651.7277 33218.87231
651.9251 33071.72576
652.1225 32747.94190
652.3198 32676.71355
652.5172 32727.56461
652.7145 32907.02811
652.9118 32776.16291
653.1091 32806.37045
653.3064 32788.04113
653.5037 32659.10101
653.7009 32169.00161
653.8982 32455.24620
654.0954 32627.62373
654.2926 32602.84331
654.4898 32393.43851
654.6870 32350.53356
654.8841 32561.06475
655.0813 32131.03227
655.2784 32340.37564
655.4755 32281.16886
655.6726 32407.67189
655.8697 31826.70412
656.0668 32027.77369
656.2639 31874.64706
656.4609 31624.22145
656.6579 31695.28596
656.8550 31641.38342
657.0520 31448.77196
657.2490 30853.38649
657.4459 31381.10707
657.6429 31256.05810
657.8398 31053.84167
658.0367 31256.67249
658.2337 31044.11382
658.4305 31082.75899
658.6274 30930.02148
658.8243 30799.91402
659.0211 30820.84426
659.2180 30570.86920
659.4148 30616.47746
659.6116 30424.78759
659.8084 30476.25304
660.0052 30417.72210
660.2019 30270.73938
660.3987 30110.89542
660.5954 30148.25037
660.7921 30032.82685
660.9888 29621.65616
661.1855 29753.29959
661.3822 29687.51884
661.5788 29544.09959
661.7755 29332.87209
661.9721 29260.86551
662.1687 29497.50830
662.3653 29225.02605
662.5619 29243.39633
662.7584 28903.76120
662.9550 29011.50483
663.1515 28892.96840
663.3480 28714.63128
663.5445 28858.05053
663.7410 28369.24135
663.9375 28496.54309
664.1340 28317.46870
664.3304 28348.84358
664.5268 28222.66823
664.7233 28528.51188
664.9197 28087.54325
665.1160 27975.96991
665.3124 27817.78481
665.5088 27827.67650
665.7051 27620.07390
665.9014 27391.11100
666.0977 27225.02073
666.2940 27111.91142
666.4903 27116.19167
666.6866 27108.69611
666.8828 26799.73954
667.0791 26832.95760
667.2753 26965.50213
667.4715 26825.09340
667.6677 26923.10918
667.8639 26788.78291
668.0600 26337.63587
668.2562 26210.31366
668.4523 26068.34846
668.6484 26220.36918
668.8445 25632.00824
669.0406 26216.08893
669.2367 26017.74315
669.4327 26023.41603
669.6287 25766.72362
669.8248 25489.53105
670.0208 25280.06481
670.2168 25156.55182
670.4128 25165.72672
670.6087 24938.19739
670.8047 24880.01460
671.0006 25080.42882
671.1965 24553.85509
671.3924 24540.42042
671.5883 24443.12142
671.7842 24575.74788
671.9801 24045.13965
672.1759 24132.60840
672.3717 23868.85050
672.5675 24356.96338
672.7633 23888.12189
672.9591 23970.04064
673.1549 23888.94108
673.3506 23599.70645
673.5464 23360.38082
673.7421 23439.57578
673.9378 23503.08329
674.1335 23067.66465
674.3292 23147.28968
674.5249 22745.56013
674.7205 22384.01172
674.9161 22571.60566
675.1118 22317.96473
675.3074 22186.93569
675.5030 22145.79200
675.6985 22426.91667
675.8941 22289.92804
676.0896 22205.03973
676.2852 22053.42861
676.4807 21884.32783
676.6762 21767.26593
676.8717 21882.52561
677.0671 21912.52836
677.2626 21791.96444
677.4580 21521.93976
677.6534 21538.07775
677.8489 21274.58609
678.0442 21204.52508
678.2396 20941.23822
678.4350 21140.87421
678.6303 20771.95312
678.8257 20663.65653
679.0210 20825.75326
679.2163 20554.19260
679.4116 20527.77381
679.6069 20304.60665
679.8021 20018.09582
679.9974 20184.71856
680.1926 19956.10381
680.3878 19886.20664
680.5830 19769.02186
680.7782 19655.58487
680.9734 19660.45904
681.1685 19516.24108
681.3636 19371.87976
681.5588 19479.43908
681.7539 19336.14271
681.9490 19228.15332
682.1441 18994.19337
682.3391 18792.36605
682.5342 18896.07518
682.7292 18807.91013
682.9242 18848.43943
683.1192 18660.78405
683.3142 18786.18118
683.5092 18842.93040
683.7041 18909.03883
683.8991 18632.66544
684.0940 18521.84985
684.2889 18224.93535
684.4838 18271.69047
684.6787 18046.22959
684.8736 17784.58110
685.0684 17884.95205
685.2633 17783.00417
685.4581 17794.67759
685.6529 17951.69535
685.8477 17905.16550
686.0425 17783.45472
686.2372 17641.79672
686.4320 17367.63515
686.6267 17297.38982
686.8214 17368.86393
687.0161 17223.54007
687.2108 17304.53723
687.4055 17189.23659
687.6002 17024.14983
687.7948 17040.24686
687.9894 17008.95390
688.1841 16883.16766
688.3787 16979.60651
688.5732 16851.13743
688.7678 16811.32492
688.9624 16637.10421
689.1569 16608.98560
689.3514 16403.39002
689.5459 16367.96016
689.7404 16549.90170
689.9349 16324.11315
690.1294 16325.19857
690.3238 16203.61067
690.5182 16137.23600
690.7127 16186.36677
690.9071 16211.84350
691.1015 15982.04093
691.2958 16019.86691
691.4902 15807.39015
691.6845 16153.72215
691.8789 15865.40911
692.0732 15893.81444
692.2675 15653.66962
692.4618 15851.33956
692.6560 15807.12392
692.8503 15904.75059
693.0445 15878.98714
693.2387 15541.72765
693.4329 15562.71933
693.6271 15591.26801
693.8213 15683.11941
694.0155 15673.37108
694.2096 15619.42758
694.4038 15521.14556
694.5979 15432.18180
694.7920 15354.44091
694.9861 15312.49851
695.1801 15335.76343
695.3742 15162.60767
695.5682 15122.95900
695.7623 15119.08834
695.9563 15166.96985
696.1503 15194.63790
696.3443 14910.50272
696.5382 15189.92758
696.7322 15106.71861
696.9261 15160.19107
697.1201 14892.17340
697.3140 14919.57522
697.5079 15053.26662
697.7017 14835.15795
697.8956 14790.36887
698.0894 14873.72120
698.2833 14986.68716
698.4771 15034.52771
698.6709 15151.79440
698.8647 15018.30780
699.0585 15248.23325
699.2522 14908.98722
699.4460 14880.43854
699.6397 14933.39901
699.8334 14717.97318
700.0271 14885.68134
700.2208 15013.04452
700.4144 15061.70425
700.6081 15106.30901
700.8017 14933.74717
700.9954 14994.46944
701.1890 14817.07439
701.3826 14734.41837
701.5761 14771.38420
701.7697 14773.37073
701.9632 14662.08411
702.1568 14877.79666
702.3503 14863.64520
702.5438 14821.43656
702.7373 14499.55731
702.9308 14767.71834
703.1242 14846.11458
703.3177 14842.34632
703.5111 14862.88745
703.7045 14870.44445
703.8979 14960.20692
704.0913 15097.99426
704.2847 15093.22249
704.4780 15034.36387
704.6713 14795.14064
704.8647 14883.87913
705.0580 14856.06771
705.2513 14840.01164
705.4445 14879.63983
705.6378 14920.08721
705.8311 14688.52339
706.0243 14731.18258
706.2175 14960.49364
706.4107 14879.39407
706.6039 15058.28415
706.7971 15103.83097
706.9902 15104.42488
707.1834 15160.31395
707.3765 15086.38228
707.5696 15106.88244
707.7627 15178.64327
707.9558 15136.86471
708.1489 15002.90707
708.3419 14944.02797
708.5349 15018.75835
708.7280 14956.47962
708.9210 15195.62093
709.1140 15198.77480
709.3069 15059.88156
709.4999 14985.62221
709.6929 15073.41863
709.8858 15021.50263
710.0787 15185.29917
710.2716 15076.87970
710.4645 15197.89417
710.6574 15214.01169
710.8502 15377.54199
711.0431 15141.43168
711.2359 15127.40309
711.4287 15142.90621
711.6215 15287.02177
711.8143 15194.08495
712.0071 15219.23401
712.1998 15339.83889
712.3925 15279.77197
712.5853 15510.45517
712.7780 15539.04481
712.9707 15556.30919
713.1633 15591.30897
713.3560 15769.80993
713.5487 15627.23034
713.7413 15707.59264
713.9339 15808.12742
714.1265 15789.18371
714.3191 15851.76964
714.5117 15593.82797
714.7042 15913.88453
714.8968 16086.18014
715.0893 16259.80693
715.2818 16203.24203
715.4743 16233.83869
715.6668 16118.90668
715.8592 16078.13162
716.0517 16167.38210
716.2441 16264.80397
716.4366 16212.74461
716.6290 16352.68231
716.8214 16451.94736
717.0137 16466.30362
717.2061 16531.65430
717.3984 16516.02830
717.5908 16380.53469
717.7831 16395.34150
717.9754 16695.92188
718.1677 16428.14996
718.3600 16615.00663
718.5522 16575.97235
718.7445 16652.73022
718.9367 16632.88540
719.1289 16755.25153
719.3211 16596.28820
719.5133 16678.43222
719.7054 16729.87720
719.8976 16904.42557
720.0897 16823.61273
720.2818 17002.99431
720.4740 17117.47576
720.6660 17098.92117
720.8581 17136.62427
721.0502 17175.16704
721.2422 17150.52998
721.4343 17300.17506
721.6263 17410.33530
721.8183 17502.14573
722.0103 17533.76637
722.2022 17345.04605
722.3942 17570.52741
722.5861 17403.18788
722.7781 17658.56959
722.9700 17700.59391
723.1619 17613.04324
723.3538 17529.71139
723.5456 17453.67031
723.7375 17712.49260
723.9293 17809.62776
724.1211 17699.13985
724.3129 17613.59619
724.5047 17660.16700
724.6965 17779.64550
724.8883 17942.39758
725.0800 18093.49671
725.2718 17992.42945
725.4635 18187.47800
725.6552 18215.73997
725.8469 18364.72969
726.0385 18588.14260
726.2302 18510.85226
726.4218 18271.17848
726.6135 18390.49314
726.8051 18364.15626
726.9967 18485.84656
727.1882 18617.59239
727.3798 18865.33517
727.5714 18784.13321
727.7629 18845.83851
727.9544 18931.40265
728.1459 18823.29037
728.3374 18915.53089
728.5289 19255.86233
728.7204 18976.94947
728.9118 19187.05058
729.1032 19376.18050
729.2946 19524.31008
729.4860 19091.59476
729.6774 19234.52250
729.8688 19377.04065
730.0602 19478.82469
730.2515 19452.79501
730.4428 19550.76983
730.6341 19455.02730
730.8254 19376.99969
731.0167 19789.09196
731.2080 19658.22675
731.3992 19826.03731
731.5905 19910.20883
731.7817 19908.46806
731.9729 19794.99011
732.1641 20012.01336
732.3553 20001.46632
732.5464 20353.08207
732.7376 20396.15085
732.9287 20431.78551
733.1198 20295.82087
733.3109 20428.87740
733.5020 20438.21613
733.6931 20497.13619
733.8841 20464.53253
734.0752 20587.26730
734.2662 20554.64316
734.4572 20529.76034
734.6482 20320.49889
734.8392 20358.26343
735.0302 20335.61290
735.2211 20690.07533
735.4120 20717.12900
735.6030 20941.58637
735.7939 21023.17745
735.9848 20990.88098
736.1756 21003.88558
736.3665 20989.61124
736.5574 20868.04381
736.7482 21150.54062
736.9390 21063.58387
737.1298 21259.59496
737.3206 21259.32872
737.5114 21492.30565
737.7021 21425.39851
737.8929 21440.12340
738.0836 21398.79540
738.2743 21559.33567
738.4650 21493.55491
738.6557 21393.61403
738.8463 21375.75575
739.0370 21416.61272
739.2276 21274.05362
739.4182 21247.90106
739.6088 21532.34344
739.7994 21425.60331
739.9900 21610.73968
740.1806 21766.22147
740.3711 21963.33846
740.5617 22020.80446
740.7522 21917.36156
740.9427 21939.47963
741.1332 22043.57788
741.3236 22124.12449
741.5141 22199.28494
741.7045 22472.36109
741.8949 22611.29529
742.0854 22323.67856
742.2758 22647.03235
742.4661 22474.42954
742.6565 22435.82533
742.8469 22611.00858
743.0372 22604.33220
743.2275 22290.54243
743.4178 22496.30185
743.6081 22745.31437
743.7984 22590.65177
743.9886 22742.20146
744.1789 22729.81125
744.3691 22586.90399
744.5593 22718.87509
744.7495 22740.89076
744.9397 22888.30355
745.1299 22848.75727
745.3200 22619.52813
745.5102 22910.03250
745.7003 22992.03316
745.8904 22999.77449
746.0805 23229.33130
746.2706 23214.97504
746.4607 23607.40681
746.6507 23616.78651
746.8408 23382.43745
747.0308 23537.73492
747.2208 23228.90123
747.4108 23416.49517
747.6007 23293.55560
747.7907 23790.18802
747.9806 23774.27531
748.1706 23729.34287
748.3605 23923.53127
748.5504 23934.52886
748.7403 24019.74484
748.9302 23828.11641
749.1200 23839.40071
749.3098 24000.30962
749.4997 23849.76344
749.6895 23839.81031
749.8793 23959.47312
750.0691 24389.38272
750.2588 24330.42170
750.4486 24191.01647
750.6383 24327.28831
750.8280 24009.03397
751.0177 23946.81667
751.2074 24000.90353
751.3971 24013.82621
751.5868 24273.18098
751.7764 24059.94647
751.9660 24031.47970
752.1557 24264.45663
752.3453 24737.63981
752.5348 24743.74275
752.7244 24840.67312
752.9140 24799.89806
753.1035 24891.52418
753.2930 24865.88361
753.4825 24899.30646
753.6720 24664.28157
753.8615 24865.55594
754.0510 24844.62570
754.2404 24865.16682
754.4299 25129.37527
754.6193 25028.36945
754.8087 25041.78365
754.9981 25092.30704
755.1875 24878.19190
755.3768 24915.87453
755.5662 25191.87928
755.7555 25122.55553
755.9448 25455.51429
756.1341 25370.35975
756.3234 25065.76536
756.5127 25212.17465
756.7019 25439.43774
756.8912 25509.92882
757.0804 25504.99322
757.2696 25460.26558
757.4588 25300.29874
757.6480 25157.92395
757.8371 25128.08505
758.0263 25079.03620
758.2154 24926.42157
758.4045 24812.59546
758.5936 24804.13735
758.7827 25274.76057
758.9718 25602.25125
759.1609 25400.32154
759.3499 25273.94138
759.5389 24842.41389
759.7280 25049.11538
759.9170 25366.40717
760.1059 25436.73442
760.2949 25415.10787
760.4839 25482.89564
760.6728 25677.78034
760.8617 25643.80454
761.0506 25337.51033
761.2395 25435.73092
761.4284 25411.54440
761.6173 25407.40751
761.8061 25504.66554
761.9950 25493.29932
762.1838 25584.20865
762.3726 25855.68739
762.5614 25435.52612
762.7502 25851.30473
762.9389 25573.31346
763.1277 25558.95720
763.3164 25846.53297
763.5051 25837.62430
763.6938 25969.90260
763.8825 25946.88344
764.0712 26297.37281
764.2598 26128.19011
764.4484 26348.57203
764.6371 26405.03453
764.8257 26176.17402
765.0143 26446.79261
765.2029 26371.34544
765.3914 26626.17419
765.5800 26881.63781
765.7685 26487.44479
765.9570 26373.12717
766.1455 26255.53281
766.3340 26224.77232
766.5225 26310.64365
766.7110 26213.11937
766.8994 26197.94392
767.0878 26151.61887
767.2762 26292.51912
767.4646 26226.57453
767.6530 26362.37534
767.8414 26546.48773
768.0298 26419.06311
768.2181 26630.74116
768.4064 26565.65671
768.5947 26482.52966
768.7830 26239.25145
768.9713 26318.38497
769.1596 26175.04763
769.3478 26185.16460
769.5360 26196.83802
769.7243 26007.83099
769.9125 25798.46714
770.1007 25747.14504
770.2888 25767.58377
770.4770 25784.35664
770.6651 25790.13191
770.8533 25646.87649
771.0414 25665.47205
771.2295 25740.42771
771.4176 26085.51044
771.6056 26347.05653
771.7937 26032.44757
771.9817 25754.80445
772.1698 26195.01533
772.3578 26159.58547
772.5458 26027.71676
772.7337 25840.10235
772.9217 25913.50155
773.1096 25961.38305
773.2976 26178.93877
773.4855 26409.02806
773.6734 26115.77942
773.8613 26351.68494
774.0492 26144.98345
774.2370 26184.07918
774.4249 26551.60765
774.6127 26786.91926
774.8005 26726.52466
774.9883 26570.12129
775.1761 26748.56080
775.3639 26370.99728
775.5516 26591.03105
775.7394 26297.51617
775.9271 26272.92006
776.1148 26175.58011
776.3025 25549.14742
776.4902 25845.09939
776.6778 25841.57688
776.8655 26101.81227
777.0531 26481.64904
777.2407 26288.95566
777.4283 25934.51370
777.6159 26263.82708
777.8035 26091.61339
777.9911 25715.85208
778.1786 26236.26142
778.3661 26085.77668
778.5536 26228.21290
778.7411 26652.10147
778.9286 26817.04488
779.1161 26524.39014
779.3036 25966.52346
779.4910 26028.65883
779.6784 26059.33740
779.8658 26291.26986
780.0532 25976.74282
780.2406 26175.45723
780.4280 25734.63195
780.6153 26069.96636
780.8026 26187.06921
780.9900 26227.29132
781.1773 25979.97861
781.3646 26268.41453
781.5518 26039.75882
781.7391 26320.14622
781.9263 25940.86241
782.1136 25875.49125
782.3008 25710.28161
782.4880 25906.41557
782.6752 25908.05395
782.8623 25944.71259
783.0495 26083.44199
783.2366 25689.84288
783.4237 25799.49113
783.6108 26159.52403
783.7979 25992.24594
783.9850 26099.27279
784.1721 26352.77036
784.3591 26001.17509
784.5462 26029.08890
784.7332 26092.80121
784.9202 26100.56301
785.1072 25937.81093
785.2941 25978.85223
785.4811 25674.91319
785.6681 25806.08558
785.8550 25919.95265
786.0419 25890.09326
786.2288 25685.58310
786.4157 25519.30852
786.6025 25726.29672
786.7894 25767.17418
786.9762 25708.58179
787.1631 25365.58799
787.3499 25721.56591
787.5367 25844.42356
787.7234 25503.74396
787.9102 25618.51213
788.0970 25603.84867
788.2837 25841.69976
788.4704 25486.74582
788.6571 25350.61733
788.8438 25495.55208
789.0305 25407.71470
789.2171 25321.29042
789.4038 25086.55224
789.5904 25186.47264
789.7770 25235.91060
789.9636 25143.34242
790.1502 25441.19899
790.3368 25380.14904
790.5233 25296.07993
790.7099 25152.37396
790.8964 24805.34565
791.0829 24546.97392
791.2694 24556.37409
791.4559 24522.39829
791.6423 24519.61305
791.8288 24606.09877
792.0152 24939.42617
792.2016 24920.25718
792.3880 25012.45673
792.5744 24710.46326
792.7608 24451.21090
792.9471 24617.01445
793.1335 24973.83204
793.3198 24688.26328
793.5061 24800.77868
793.6924 24351.57722
793.8787 24457.78488
794.0650 24423.50188
794.2512 24575.46116
794.4375 24806.10340
794.6237 25021.89787
794.8099 24919.33560
794.9961 24454.61053
795.1823 24423.39948
795.3684 24650.13010
795.5546 24352.56024
795.7407 24367.10082
795.9268 23931.39547
796.1129 24103.09717
796.2990 24584.90230
796.4851 24960.72504
796.6712 24639.29635
796.8572 24277.27691
797.0432 24154.70598
797.2292 24401.60910
797.4152 24289.79000
797.6012 23842.96418
797.7872 23832.78577
797.9731 23963.46666
798.1591 23755.59783
798.3450 23725.14454
798.5309 24054.88799
798.7168 24110.69513
798.9027 24156.67203
799.0885 24030.82435
799.2744 23874.31858
799.4602 24076.73981
799.6460 24060.90901
799.8318 24392.31132
800.0176 24124.08885
800.2034 24182.78363
800.3892 23719.06207
800.5749 23589.11845
800.7606 23659.69146
800.9463 23705.48404
801.1320 23757.09285
801.3177 23773.29228
801.5034 23831.35220
801.6890 24065.31215
801.8747 23828.30072
802.0603 23430.13464
802.2459 23381.20867
802.4315 23365.86938
802.6171 23145.95850
802.8026 23472.52759
802.9882 23626.08429
803.1737 23232.40326
803.3592 23447.33758
803.5447 23591.61697
803.7302 23670.60713
803.9157 23604.29390
804.1012 23679.18812
804.2866 23277.66337
804.4720 23440.29256
804.6574 23334.39210
804.8428 23101.10798
805.0282 23054.25045
805.2136 23121.38287
805.3989 23316.59525
805.5843 23043.37574
805.7696 22993.03667
805.9549 22898.17476
806.1402 22871.55116
806.3255 22617.39824
806.5107 22742.52913
806.6960 23064.57222
806.8812 22783.57042
807.0664 22872.18603
807.2516 22563.59810
807.4368 22410.45100
807.6220 22460.50335
807.8072 22440.26942
807.9923 22488.15093
808.1774 22447.80595
808.3625 22809.41579
808.5476 22725.42859
808.7327 22739.53910
808.9178 22499.76292
809.1028 22569.18906
809.2879 22459.99136
809.4729 22447.94931
809.6579 22256.77142
809.8429 22496.48617
810.0279 22428.59600
810.2128 22422.82073
810.3978 22377.62206
810.5827 22397.07776
810.7676 22572.62964
810.9525 22662.04396
811.1374 22458.92642
811.3223 22381.61560
811.5072 21939.58202
811.6920 21869.64389
811.8768 22181.85673
812.0616 21870.05348
812.2464 22078.74150
812.4312 21952.56615
812.6160 21935.99808
812.8007 22126.02910
812.9855 22316.85883
813.1702 22041.22271
813.3549 21914.90400
813.5396 21799.66480
813.7243 21614.71274
813.9089 21809.55649
814.0936 21924.30418
814.2782 21931.24679
814.4628 21947.50766
814.6474 21985.53844
814.8320 21823.27788
815.0166 21656.02027
815.2012 21904.09072
815.3857 21640.31235
815.5702 21629.92915
815.7547 21709.34938
815.9392 21650.59315
816.1237 21439.24278
816.3082 21082.58902
816.4926 21365.82310
816.6771 21348.25153
816.8615 21133.60392
817.0459 21373.03195
817.2303 21363.75465
817.4147 21476.39293
817.5990 21440.45108
817.7834 21278.49771
817.9677 21240.99940
818.1520 21505.37169
818.3363 21288.43036
818.5206 21039.06968
818.7049 21206.49113
818.8891 21194.16236
819.0734 21214.41677
819.2576 21155.47623
819.4418 20912.52570
819.6260 20937.85907
819.8102 21023.56656
819.9944 20811.97043
820.1785 20679.93788
820.3627 20907.05762
820.5468 20899.02958
820.7309 20725.64855
820.9150 20554.68412
821.0991 20400.69735
821.2831 20655.64897
821.4672 20449.19325
821.6512 20336.00201
821.8352 20415.23792
822.0192 20764.88763
822.2032 20511.30814
822.3872 20741.60222
822.5711 20526.56550
822.7551 20507.92899
822.9390 20620.93590
823.1229 20674.22405
823.3068 20679.01630
823.4907 20275.99653
823.6745 20399.55048
823.8584 20411.26486
824.0422 20327.81014
824.2261 20317.40646
824.4099 20484.19303
824.5937 20599.65751
824.7774 20460.96907
824.9612 20440.24362
825.1449 20343.19038
825.3287 20281.11645
825.5124 20174.39680
825.6961 20385.76765
825.8798 20336.73928
826.0634 20408.64346
826.2471 20158.03353
826.4307 20335.77674
826.6144 20334.62987
826.7980 20430.74105
826.9816 20174.60160
827.1652 20300.57215
827.3487 20185.21007
827.5323 19943.61120
827.7158 19793.35173
827.8993 20143.20623
828.0828 20063.54025
828.2663 19809.16205
828.4498 19960.83462
828.6333 20274.97254
828.8167 20052.58362
829.0001 20095.32473
829.1836 20154.06047
829.3670 20201.55286
829.5504 20382.16323
829.7337 20053.25945
829.9171 20017.15376
830.1004 19995.24049
830.2837 19900.09186
830.4671 19707.99240
830.6504 19455.10921
830.8336 19607.88768
831.0169 19591.77017
831.2002 19798.06206
831.3834 19799.22940
831.5666 19716.75770
831.7498 19812.29544
831.9330 20068.12770
832.1162 19969.68184
832.2993 19778.23772
832.4825 19851.24781
832.6656 19746.84236
832.8487 19588.88253
833.0318 19585.95394
833.2149 19413.41257
833.3980 19575.48882
833.5811 19662.93708
833.7641 19639.77456
833.9471 19534.65232
834.1301 19235.93560
834.3131 19048.15734
834.4961 19238.47508
834.6791 19312.05860
834.8620 19714.75069
835.0450 19628.38785
835.2279 19723.51600
835.4108 19578.17166
835.5937 19683.72397
835.7766 19371.18345
835.9594 19424.67640
836.1423 19409.27567
836.3251 19804.88180
836.5079 19742.15251
836.6907 19386.42034
836.8735 19282.73168
837.0563 19321.23350
837.2390 19295.30621
837.4218 19100.23719
837.6045 19332.76356
837.7872 19505.93980
837.9699 19222.39853
838.1526 19112.52500
838.3352 19161.81961
838.5179 19250.57858
838.7005 19229.19778
838.8831 19325.57519
839.0658 19438.58211
839.2483 19610.98012
839.4309 19553.78035
839.6135 19579.46188
839.7960 19270.40291
839.9786 19381.05466
840.1611 19035.23466
840.3436 19186.25188
840.5261 19047.72727
840.7085 18941.45817
840.8910 18841.08722
841.0734 18911.68071
841.2559 18921.34712
841.4383 19076.37835
841.6207 19318.22298
841.8030 19021.73855
841.9854 18928.28973
842.1678 18862.14034
842.3501 18854.64478
842.5324 18769.38784
842.7147 18922.24822
842.8970 19115.18736
843.0793 18901.23607
843.2615 18941.29433
843.4438 19143.55173
843.6260 19146.50080
843.8082 19135.05266
843.9904 19129.76890
844.1726 18795.70424
844.3548 18606.12377
844.5369 18581.56862
844.7191 18708.87036
844.9012 18608.99093
845.0833 18659.51431
845.2654 18946.43474
845.4475 19054.15789
845.6296 18683.59843
845.8116 18612.65679
845.9936 18566.82325
846.1757 18453.87777
846.3577 18399.21749
846.5397 18425.14477
846.7216 18355.78007
846.9036 18371.71327
847.0855 18111.12972
847.2675 18292.55927
847.4494 18407.22504
847.6313 18538.15169
847.8132 18581.77342
847.9950 18455.02463
848.1769 18369.68578
848.3587 18537.84449
848.5406 18347.99779
848.7224 18356.53782
848.9042 18267.63549
849.0860 18419.86101
849.2677 18228.02778
849.4495 18104.24855
849.6312 18068.98252
849.8129 18284.69507
849.9946 18509.07053
850.1763 18359.85553
850.3580 18177.27911
850.5397 18063.98548
850.7213 17900.29134
850.9029 17915.07767
851.0845 17943.44204
851.2661 17969.69700
851.4477 17943.99499
851.6293 18023.72242
851.8109 17990.32005
851.9924 18036.25598
852.1739 18103.12216
852.3554 18035.15008
852.5369 18123.72473
852.7184 17760.84515
852.8999 17613.61667
853.0813 17610.81096
853.2628 17673.90887
853.4442 17737.19111
853.6256 17669.48526
853.8070 17710.13744
853.9883 17925.29704
854.1697 17774.70990
854.3510 17452.66681
854.5324 17504.02987
854.7137 17489.85792
854.8950 17572.47298
855.0763 17599.60857
855.2575 17570.83461
855.4388 17543.12559
855.6200 17574.50047
855.8013 17558.77207
855.9825 17419.28492
856.1637 17353.89328
856.3449 17399.87018
856.5260 17418.79341
856.7072 17296.93927
856.8883 17522.56398
857.0694 17350.04310
857.2505 17278.32323
857.4316 17279.49057
857.6127 17154.25728
857.7938 17231.30187
857.9748 17098.67541
858.1558 16998.44782
858.3368 16947.65820
858.5178 16980.07754
858.6988 17147.43755
858.8798 17046.39077
859.0607 17222.78232
859.2417 17196.79359
859.4226 17158.02555
859.6035 17193.04581
859.7844 17216.06498
859.9653 17107.03112
860.1462 16999.84044
860.3270 17050.03615
860.5078 16955.48144
860.6887 16993.86037
860.8695 16925.76541
861.0503 16827.70867
861.2310 16533.80467
861.4118 16492.68146
861.5925 16562.35335
861.7733 16586.64226
861.9540 16308.75338
862.1347 16143.72806
862.3154 16130.62106
862.4960 16332.07975
862.6767 16341.50040
862.8573 16334.12772
863.0380 16165.41605
863.2186 16223.78316
863.3992 16048.96855
863.5797 16123.35077
863.7603 16148.56127
863.9409 16166.15332
864.1214 16120.74985
864.3019 16125.54210
864.4824 15961.92988
864.6629 15903.54229
864.8434 15729.69022
865.0238 15820.02612
865.2043 15909.19468
865.3847 15655.14416
865.5651 15612.56689
865.7455 15759.93872
865.9259 15808.49606
866.1063 15630.42518
866.2866 15549.63281
866.4670 15520.06014
866.6473 15480.26811
866.8276 15495.05444
867.0079 15515.30885
867.1882 15362.14127
867.3684 15220.36039
867.5487 15275.00020
867.7289 15287.63617
867.9091 15325.44167
868.0893 15124.92505
868.2695 14833.19190
868.4497 14773.98512
868.6299 14866.65571
868.8100 14832.88470
868.9901 14845.52067
869.1703 15080.64796
869.3504 15050.93194
869.5304 15022.05558
869.7105 15170.55379
869.8906 15023.07956
870.0706 14832.72087
870.2506 14803.90595
870.4306 14836.91920
870.6106 14787.80891
870.7906 15003.76722
870.9706 14896.63797
871.1505 14798.39691
871.3305 14726.73848
871.5104 14671.17709
871.6903 14530.21540
871.8702 14645.76180
872.0500 14599.39579
872.2299 14587.47661
872.4097 14452.80218
872.5896 14483.25548
872.7694 14540.20949
872.9492 14530.01061
873.1290 14145.36112
873.3087 14165.22641
873.4885 14535.88828
873.6682 14504.22668
873.8480 14362.42532
874.0277 14324.33310
874.2074 14043.98666
874.3870 14107.30986
874.5667 14067.94790
874.7463 14269.28370
874.9260 14078.04438
875.1056 14034.60697
875.2852 13984.06310
875.4648 14029.40512
875.6444 14055.82392
875.8239 14137.98843
876.0035 13999.87342
876.1830 13891.16723
876.3625 13803.43225
876.5420 13825.85751
876.7215 13783.36216
876.9010 13644.73515
877.0804 13701.23861
877.2599 13585.18022
877.4393 13767.28560
877.6187 13802.57211
877.7981 13846.25528
877.9775 13747.66606
878.1568 13829.62577
878.3362 13690.73253
878.5155 13686.34988
878.6948 13422.14143
878.8741 13434.77740
879.0534 13387.55124
879.2327 13339.44445
879.4119 13388.20659
879.5912 13231.78274
879.7704 13418.82372
879.9496 13562.79593
880.1288 13499.71849
880.3080 13300.77880
880.4872 13369.77487
880.6663 13381.83741
880.8455 13330.16715
881.0246 13412.82317
881.2037 13364.90070
881.3828 13245.83180
881.5619 13222.42352
881.7409 13224.04141
881.9200 13159.10032
882.0990 13174.35769
882.2780 13100.71274
882.4570 13062.98915
882.6360 13123.69095
882.8150 12949.63408
882.9940 12938.45217
883.1729 12935.52358
883.3518 13145.84997
883.5308 13080.64264
883.7096 13118.59150
883.8885 12930.77229
884.0674 12838.61370
884.2463 12793.66078
884.4251 12867.05998
884.6039 12731.62781
884.7827 12814.03807
884.9615 12745.14440
885.1403 12667.46495
885.3191 12608.60633
885.4978 12497.29922
885.6765 12484.08982
885.8553 12576.39178
886.0340 12640.86183
886.2127 12595.80652
886.3913 12378.06648
886.5700 12248.55294
886.7486 12217.75149
886.9273 12263.54407
887.1059 12206.30334
887.2845 12066.65235
887.4630 12074.43464
887.6416 12140.29731
887.8202 12205.11552
887.9987 12212.91828
888.1772 12212.85684
888.3557 12177.14027
888.5342 12006.74927
888.7127 12172.71666
888.8912 12225.65665
889.0696 12288.03778
889.2481 12051.74314
889.4265 11896.93718
889.6049 11873.16027
889.7833 11819.23725
889.9616 11724.43678
890.1400 11771.33526
890.3183 11644.64791
890.4967 11746.75964
890.6750 11943.42607
890.8533 11805.51586
891.0316 11656.62853
891.2098 11509.89157
891.3881 11505.77515
891.5663 11454.61689
891.7445 11520.60245
891.9227 11483.22702
892.1009 11451.50398
892.2791 11533.50465
892.4573 11542.47475
892.6354 11469.64898
892.8136 11534.91775
892.9917 11519.55798
893.1698 11375.81106
893.3479 11484.47628
893.5259 11547.53324
893.7040 11385.66179
893.8820 11393.66934
894.0601 11279.59748
894.2381 11408.86527
894.4161 11469.28035
894.5941 11608.07119
894.7720 11529.77735
894.9500 11516.46555
895.1279 11566.64078
895.3058 11349.14650
895.4838 11312.67218
895.6616 11208.45105
895.8395 11175.92931
896.0174 11213.14090
896.1952 11281.11298
896.3731 11350.12953
896.5509 11269.39860
896.7287 11183.62967
896.9065 11180.20956
897.0842 11293.25744
897.2620 11188.60623
897.4397 11065.52331
897.6175 11127.78156
897.7952 11210.13038
897.9729 11268.94805
898.1506 11141.13432
898.3282 11007.03332
898.5059 11028.70083
898.6835 11049.42628
898.8611 11072.24065
899.0388 10880.22310
899.2163 10731.72488
899.3939 10701.59926
899.5715 10878.40041
899.7490 10887.55483
899.9266 10763.85751
900.1041 10802.01117
900.2816 10862.50817
900.4591 10794.84328
900.6365 10865.80540
900.8140 10771.23020
900.9914 10740.51067
901.1689 10768.75216
901.3463 10806.59862
901.5237 10845.63291
901.7011 10684.82640
901.8784 10672.51811
902.0558 10526.64129
902.2331 10600.59345
902.4104 10664.36719
902.5878 10668.50409
902.7650 10605.50857
902.9423 10559.22448
903.1196 10677.45371
903.2968 10683.92529
903.4741 10646.59082
903.6513 10556.54164
903.8285 10479.86569
904.0057 10544.41766
904.1828 10458.75113
904.3600 10325.48980
904.5371 10329.01231
904.7143 10355.67686
904.8914 10390.77905
905.0685 10469.99448
905.2456 10409.98899
905.4226 10423.01407
905.5997 10521.93097
905.7767 10563.38185
905.9537 10449.47383
906.1307 10379.98625
906.3077 10328.41840
906.4847 10316.56066
906.6617 10219.11831
906.8386 10345.27318
907.0156 10250.73894
907.1925 10201.95633
907.3694 10224.66830
907.5463 10202.93935
907.7231 10198.43382
907.9000 10226.14284
908.0768 10153.48091
908.2537 10056.26383
908.4305 10018.82696
908.6073 10079.77451
908.7841 10096.52690
908.9608 9985.42459
909.1376 9956.89639
909.3143 10000.06757
909.4910 9975.41003
909.6677 10050.67288
909.8444 9981.53345
910.0211 9975.02091
910.1978 9960.64417
910.3744 10008.66904
910.5510 10063.28836
910.7277 10069.51419
910.9043 9868.34222
911.0808 9841.04280
911.2574 9835.71808
911.4340 9834.10018
911.6105 9677.73777
911.7870 9731.96798
911.9636 9844.42194
912.1401 9748.31077
912.3165 9765.18603
912.4930 9708.86689
912.6695 9632.41622
912.8459 9642.43079
913.0223 9598.11274
913.1987 9598.31754
913.3751 9607.36956
913.5515 9606.65277
913.7279 9625.82176
913.9042 9565.14045
914.0805 9426.59536
914.2568 9413.67268
914.4331 9416.92895
914.6094 9427.92654
914.7857 9471.05676
914.9620 9493.11338
915.1382 9385.53359
915.3144 9325.20043
915.4906 9434.35716
915.6668 9478.67520
915.8430 9396.24446
916.0192 9222.74055
916.1953 9274.20600
916.3715 9292.74012
916.5476 9252.94809
916.7237 9360.89652
916.8998 9327.82183
917.0759 9164.74208
917.2519 9137.01258
917.4280 9272.17852
917.6040 9169.35000
917.7800 9144.20095
917.9560 9079.75137
918.1320 9110.79858
918.3080 9136.93066
918.4839 9082.49565
918.6599 9070.78127
918.8358 9067.13588
919.0117 9060.37759
919.1876 9040.55325
919.3635 9011.84073
919.5394 9101.31648
919.7152 9042.35546
919.8911 9040.38941
920.0669 9027.30289
920.2427 8823.81672
920.4185 8793.73206
920.5942 8834.93719
920.7700 8781.81288
920.9458 8900.14451
921.1215 8907.90631
921.2972 8889.45412
921.4729 8863.42443
921.6486 8707.94265
921.8243 8523.25682
921.9999 8568.90605
922.1756 8552.39942
922.3512 8621.49788
922.5268 8555.88097
922.7024 8688.13879
922.8780 8669.50227
923.0535 8657.43974
923.2291 8563.84756
923.4046 8678.10374
923.5801 8779.51915
923.7557 8705.54652
923.9311 8638.82370
924.1066 8568.35310
924.2821 8645.60248
924.4575 8668.21205
924.6330 8609.02575
924.8084 8505.74669
924.9838 8425.36392
925.1592 8455.24378
925.3345 8419.60913
925.5099 8350.49018
925.6852 8333.18484
925.8606 8371.25658
926.0359 8250.91794
926.2112 8219.66594
926.3864 8199.08385
926.5617 8084.97103
926.7370 8060.00629
926.9122 8061.89042
927.0874 8053.04320
927.2626 8051.93730
927.4378 8056.44283
927.6130 8059.04375
927.7882 8028.71333
927.9633 7943.74311
928.1384 7908.29277
928.3135 7850.92916
928.4886 7764.81208
928.6637 7818.48934
928.8388 7857.33930
929.0139 7818.85797
929.1889 7820.41443
929.3639 7794.17995
929.5389 7811.30097
929.7139 7806.69304
929.8889 7798.97220
930.0639 7778.47203
930.2388 7702.30807
930.4138 7682.46325
930.5887 7664.07249
930.7636 7675.17248
930.9385 7624.03470
931.1134 7575.21113
931.2882 7588.05189
931.4631 7505.92835
931.6379 7457.43245
931.8127 7384.91387
931.9875 7392.42992
932.1623 7420.17990
932.3371 7393.39246
932.5118 7338.32258
932.6866 7306.98866
932.8613 7322.32795
933.0360 7319.48127
933.2107 7315.44677
933.3854 7245.01713
933.5600 7263.65364
933.7347 7142.02478
933.9093 7163.30318
934.0839 7217.02140
934.2586 7256.01472
934.4331 7205.32749
934.6077 7143.19212
934.7823 7069.83388
934.9568 7152.34654
935.1314 7085.37796
935.3059 7085.76708
935.4804 6989.94262
935.6549 6983.63488
935.8293 7017.95883
936.0038 6972.88304
936.1782 6992.50258
936.3526 7014.02673
936.5271 6935.03658
936.7015 6843.84053
936.8758 6857.93055
937.0502 6812.69092
937.2246 6782.44243
937.3989 6886.54068
937.5732 6766.63211
937.7475 6755.73691
937.9218 6722.58030
938.0961 6710.43585
938.2703 6706.19655
938.4446 6638.87982
938.6188 6640.98923
938.7930 6637.89679
938.9672 6612.15383
939.1414 6668.63680
939.3156 6592.53428
939.4897 6573.22194
939.6639 6494.98953
939.8380 6478.23715
940.0121 6467.79251
940.1862 6473.26058
940.3603 6478.17571
940.5344 6518.45925
940.7084 6516.98472
940.8824 6472.01132
941.0565 6455.70949
941.2305 6384.29682
941.4045 6305.73674
941.5784 6291.54432
941.7524 6313.49854
941.9263 6378.17340
942.1003 6344.79150
942.2742 6339.03671
942.4481 6265.57607
942.6220 6307.82567
942.7958 6283.04525
942.9697 6247.20579
943.1435 6192.93462
943.3174 6216.52722
943.4912 6170.65272
943.6650 6172.68021
943.8387 6079.72291
944.0125 6088.81589
944.1863 6140.30183
944.3600 6136.55404
944.5337 6160.16712
944.7074 6211.40730
944.8811 6134.64943
945.0548 6115.56236
945.2284 6023.32185
945.4021 6014.67942
945.5757 6075.21738
945.7493 6036.12165
945.9229 5869.39652
946.0965 5794.99381
946.2701 5777.85232
946.4436 5843.98123
946.6172 5850.63713
946.7907 5825.01704
946.9642 5822.90763
947.1377 5816.31317
947.3112 5753.11285
947.4847 5814.55192
947.6581 5820.57294
947.8315 5834.97016
948.0050 5735.31600
948.1784 5677.09225
948.3518 5701.31972
948.5251 5706.23485
948.6985 5781.66154
948.8718 5739.45290
949.0452 5604.79896
949.2185 5581.22684
949.3918 5593.86280
949.5651 5634.12587
949.7383 5576.96706
949.9116 5575.59492
950.0848 5631.91406
950.2581 5656.46921
950.4313 5651.69744
950.6045 5707.03356
950.7776 5709.32728
950.9508 5576.55747
951.1239 5574.38662
951.2971 5441.26865
951.4702 5482.96530
951.6433 5510.69479
951.8164 5437.15223
951.9895 5458.73783
952.1625 5411.77790
952.3356 5436.47640
952.5086 5382.55339
952.6816 5408.86979
952.8546 5356.72850
953.0276 5303.41988
953.2006 5312.26710
953.3735 5325.55842
953.5465 5360.82444
953.7194 5370.51133
953.8923 5329.63387
954.0652 5318.59532
954.2381 5271.96307
954.4109 5248.65719
954.5838 5212.73582
954.7566 5223.73341
954.9294 5155.35173
955.1022 5142.26521
955.2750 5179.88640
955.4478 5137.57537
955.6206 5167.08660
955.7933 5210.76977
955.9660 5171.79692
956.1388 5230.47123
956.3115 5202.41406
956.4841 5117.79199
956.6568 5061.80052
956.8295 5072.30660
957.0021 5038.39224
957.1747 5052.21603
957.3473 5015.22971
957.5199 4972.38621
957.6925 4988.62660
957.8651 4975.08953
958.0376 4956.49397
958.2102 4943.69416
958.3827 4997.10519
958.5552 5033.64095
958.7277 4976.78934
958.9001 4926.79842
959.0726 4882.29606
959.2450 4859.52265
959.4175 4895.44402
959.5899 4833.16529
959.7623 4813.34095
959.9347 4762.59229
960.1070 4732.34379
960.2794 4741.37533
960.4517 4720.17885
960.6241 4755.32200
960.7964 4765.54136
960.9687 4772.60685
961.1409 4777.99301
961.3132 4751.73805
961.4855 4713.85063
961.6577 4683.02870
961.8299 4650.60936
962.0021 4648.60235
962.1743 4633.77505
962.3465 4575.14171
962.5186 4574.09724
962.6908 4567.52326
962.8629 4572.45887
963.0350 4507.41538
963.2071 4528.52994
963.3792 4533.52698
963.5513 4554.51866
963.7233 4603.32176
963.8954 4575.10075
964.0674 4570.28802
964.2394 4540.16240
964.4114 4498.58864
964.5834 4477.08496
964.7553 4481.07850
964.9273 4478.12943
965.0992 4461.93000
965.2711 4521.48493
965.4430 4493.81687
965.6149 4457.77262
965.7868 4433.15603
965.9587 4421.93317
966.1305 4434.73297
966.3023 4421.50309
966.4741 4396.82507
966.6459 4388.32600
966.8177 4406.79868
966.9895 4407.80218
967.1613 4434.22098
967.3330 4412.41011
967.5047 4373.06863
967.6764 4351.83120
967.8481 4339.66626
968.0198 4315.25447
968.1915 4266.47186
968.3631 4228.33868
968.5347 4238.27133
968.7064 4227.90861
968.8780 4230.81672
969.0496 4228.70731
969.2211 4209.80456
969.3927 4213.61378
969.5642 4162.08689
969.7358 4136.99927
969.9073 4123.05261
970.0788 4177.85625
970.2503 4192.27395
970.4217 4189.87783
970.5932 4147.62823
970.7646 4147.95591
970.9360 4174.33374
971.1074 4195.83742
971.2788 4212.54884
971.4502 4159.07638
971.6216 4113.36571
971.7929 4082.56426
971.9643 4098.25170
972.1356 4131.42880
972.3069 4111.50206
972.4782 4092.80411
972.6494 4061.77738
972.8207 4055.38772
972.9919 4054.58901
973.1632 4002.75492
973.3344 4011.06967
973.5056 3950.51124
973.6768 3938.65350
973.8479 3982.25475
974.0191 4010.12761
974.1902 4001.38278
974.3614 3987.68187
974.5325 3979.98151
974.7036 3958.47784
974.8746 3938.38726
975.0457 3941.70497
975.2167 3906.93046
975.3878 3882.15004
975.5588 3857.84065
975.7298 3857.77921
975.9008 3840.86299
976.0718 3826.95728
976.2427 3825.48275
976.4137 3813.64549
976.5846 3802.83221
976.7555 3788.35307
976.9264 3794.84513
977.0973 3784.44145
977.2682 3811.94567
977.4390 3821.55065
977.6098 3844.79509
977.7807 3807.33774
977.9515 3808.52557
978.1223 3819.01117
978.2930 3783.72466
978.4638 3757.55162
978.6346 3725.21420
978.8053 3683.92715
978.9760 3704.28396
979.1467 3656.66868
979.3174 3665.96646
979.4881 3673.70778
979.6587 3680.22032
979.8294 3679.01202
980.0000 3641.86187
980.1706 3618.35119
980.3412 3619.33421
980.5118 3651.15965
980.6824 3632.78937
980.8529 3668.48546
981.0235 3645.75301
981.1940 3629.84029
981.3645 3580.48425
981.5350 3596.70416
981.7055 3578.66155
981.8759 3575.63056
982.0464 3562.52356
982.2168 3545.93501
982.3872 3561.19238
982.5576 3546.93852
982.7280 3538.76712
982.8984 3540.18022
983.0687 3548.67929
983.2391 3541.12229
983.4094 3536.04332
983.5797 3506.98265
983.7500 3509.60405
983.9203 3467.74357
984.0906 3481.17824
984.2608 3439.93215
984.4311 3472.06478
984.6013 3432.49802
984.7715 3468.99283
984.9417 3474.95242
985.1119 3462.72604
985.2820 3396.94529
985.4522 3393.52518
985.6223 3411.42442
985.7924 3419.82110
985.9625 3436.30725
986.1326 3442.81979
986.3027 3412.14121
986.4727 3422.19674
986.6428 3400.40635
986.8128 3383.73589
986.9828 3360.73720
987.1528 3344.53777
987.3228 3339.25401
987.4928 3351.88997
987.6627 3358.95547
987.8327 3323.85328
988.0026 3330.77542
988.1725 3341.52725
988.3424 3329.62855
988.5123 3331.26693
988.6821 3321.06804
988.8520 3309.08743
989.0218 3262.06606
989.1916 3256.59799
989.3614 3225.50982
989.5312 3234.88952
989.7010 3228.27458
989.8707 3252.21533
990.0405 3244.69929
990.2102 3262.37326
990.3799 3235.52439
990.5496 3207.97921
990.7193 3184.83716
990.8890 3185.53347
991.0586 3157.16910
991.2283 3189.17886
991.3979 3197.14545
991.5675 3196.81778
991.7371 3199.17294
991.9067 3175.21171
992.0762 3138.96266
992.2458 3159.44235
992.4153 3166.97887
992.5848 3184.26373
992.7543 3169.27260
992.9238 3131.69237
993.0933 3134.47761
993.2627 3141.91174
993.4322 3119.99847
993.6016 3119.17928
993.7710 3088.45975
993.9404 3093.45680
994.1098 3075.00460
994.2792 3079.73541
994.4485 3069.08597
994.6179 3065.07195
994.7872 3084.36382
994.9565 3082.86880
995.1258 3097.04074
995.2951 3080.88227
995.4643 3092.08466
995.6336 3094.21455
995.8028 3064.06845
995.9720 3031.40334
996.1412 3047.21366
996.3104 3042.58525
996.4796 3057.80166
996.6487 3039.92289
996.8179 3046.74263
996.9870 3037.79301
997.1561 3010.18639
997.3252 3013.29930
997.4943 3002.46555
997.6634 3004.82071
997.8324 3005.57846
998.0014 2997.63234
998.1705 2980.81852
998.3395 2940.45305
998.5085 2916.28702
998.6774 2923.70067
998.8464 2915.52927
999.0153 2929.98793
999.1843 2932.03590
999.3532 2929.55786
999.5221 2899.04312
999.6910 2904.90031
999.8599 2946.39216
1000.0287 2959.90875
1000.1976 2960.27739
1000.3664 2957.71743
1000.5352 2947.41615
1000.7040 2943.95508
1000.8728 2941.47704
1001.0415 2905.59662
1001.2103 2874.50846
1001.3790 2873.64831
1001.5478 2837.23543
1001.7165 2858.22711
1001.8851 2840.88081
1002.0538 2844.32140
1002.2225 2861.48338
1002.3911 2846.67656
1002.5598 2835.18746
1002.7284 2825.29577
1002.8970 2822.79725
1003.0656 2838.60757
1003.2341 2794.14616
1003.4027 2796.72660
1003.5712 2755.27572
1003.7398 2759.35117
1003.9083 2760.78475
1004.0768 2740.14123
1004.2453 2728.69308
1004.4137 2761.33770
1004.5822 2764.04102
1004.7506 2776.94323
1004.9190 2737.41743
1005.0874 2744.23717
1005.2558 2752.77720
1005.4242 2744.38052
1005.5926 2756.79121
1005.7609 2740.55082
1005.9292 2731.17112
1006.0976 2747.10432
1006.2659 2751.87609
1006.4342 2760.66188
1006.6024 2745.54787
1006.7707 2734.59123
1006.9389 2735.73810
1007.1071 2747.08384
1007.2754 2741.88200
1007.4436 2717.81837
1007.6117 2704.38369
1007.7799 2711.26487
1007.9481 2708.43867
1008.1162 2703.97410
1008.2843 2694.12337
1008.4524 2696.97005
1008.6205 2669.87542
1008.7886 2677.80106
1008.9566 2677.30955
1009.1247 2658.03816
1009.2927 2660.02469
1009.4607 2650.56308
1009.6287 2640.17987
1009.7967 2635.98154
1009.9647 2625.98745
1010.1327 2596.20998
1010.3006 2581.40317
1010.4685 2572.24875
1010.6364 2589.96368
1010.8043 2588.28435
1010.9722 2572.84266
1011.1401 2558.60928
1011.3079 2544.35542
1011.4758 2567.72274
1011.6436 2552.40393
1011.8114 2570.97901
1011.9792 2572.98602
1012.1470 2600.57216
1012.3147 2582.55003
1012.4825 2582.14044
1012.6502 2586.89173
1012.8179 2578.00354
1012.9856 2549.04526
1013.1533 2565.01942
1013.3210 2522.85174
1013.4886 2520.10747
1013.6563 2509.08939
1013.8239 2509.08939
1013.9915 2521.50008
1014.1591 2498.99291
1014.3267 2524.36724
1014.4942 2511.73127
1014.6618 2503.47796
1014.8293 2510.91209
1014.9969 2520.43514
1015.1644 2543.43383
1015.3319 2541.93881
1015.4993 2501.57335
1015.6668 2497.19070
1015.8342 2478.73850
1016.0017 2475.56415
1016.1691 2495.55232
1016.3365 2487.42188
1016.5039 2483.24403
1016.6712 2483.42835
1016.8386 2480.62263
1017.0059 2467.12651
1017.1733 2476.15806
1017.3406 2459.05752
1017.5079 2464.42320
1017.6752 2442.38705
1017.8424 2456.47708
1018.0097 2429.28005
1018.1769 2434.64573
1018.3441 2424.69260
1018.5113 2419.47028
1018.6785 2407.12103
1018.8457 2410.66402
1019.0129 2420.63762
1019.1800 2436.79610
1019.3471 2438.18872
1019.5142 2422.66511
1019.6813 2416.86936
1019.8484 2411.17601
1020.0155 2401.53008
1020.1826 2406.34280
1020.3496 2393.44060
1020.5166 2372.73563
1020.6836 2363.21258
1020.8506 2373.32955
1021.0176 2350.06462
1021.1846 2368.25058
1021.3515 2347.81185
1021.5185 2373.78010
1021.6854 2354.79543
1021.8523 2360.55022
1022.0192 2364.87143
1022.1861 2369.60224
1022.3529 2338.75983
1022.5198 2359.42384
1022.6866 2350.22846
1022.8534 2358.68657
1023.0202 2339.10799
1023.1870 2329.15486
1023.3538 2327.31169
1023.5205 2335.17589
1023.6873 2316.41649
1023.8540 2326.88161
1024.0207 2323.09287
1024.1874 2327.49600
1024.3541 2316.74417
1024.5207 2314.57332
1024.6874 2308.85949
1024.8540 2315.18771
1025.0206 2297.77998
1025.1872 2302.38791
1025.3538 2290.98072
1025.5204 2299.33643
1025.6870 2287.37630
1025.8535 2276.05103
1026.0201 2279.06154
1026.1866 2285.71744
1026.3531 2255.96046
1026.5196 2258.11082
1026.6860 2281.12999
1026.8525 2279.96265
1027.0189 2255.85806
1027.1853 2262.43204
1027.3518 2255.89902
1027.5181 2274.69937
1027.6845 2273.04052
1027.8509 2254.07633
1028.0172 2236.21804
1028.1836 2223.00864
1028.3499 2221.94370
1028.5162 2224.17598
1028.6825 2205.94906
1028.8488 2206.48153
1029.0150 2212.01105
1029.1813 2197.85958
1029.3475 2195.17674
1029.5137 2202.50847
1029.6799 2202.09888
1029.8461 2185.69465
1030.0123 2186.47288
1030.1784 2197.55239
1030.3446 2197.20423
1030.5107 2182.11070
1030.6768 2192.24815
1030.8429 2180.00130
1031.0090 2173.22252
1031.1750 2193.39501
1031.3411 2185.36697
1031.5071 2170.58064
1031.6732 2170.62160
1031.8392 2165.58360
1032.0051 2158.90722
1032.1711 2156.59301
1032.3371 2147.82771
1032.5030 2144.53048
1032.6690 2148.93361
1032.8349 2150.92014
1033.0008 2142.48251
1033.1667 2142.50299
1033.3325 2132.87753
1033.4984 2133.59432
1033.6642 2132.97993
1033.8300 2148.03250
1033.9959 2134.70023
1034.1616 2137.64930
1034.3274 2128.55632
1034.4932 2129.39599
1034.6589 2117.78400
1034.8247 2120.79452
1034.9904 2109.91980
1035.1561 2114.95781
1035.3218 2112.23401
1035.4875 2103.40726
1035.6531 2100.80634
1035.8188 2100.54011
1035.9844 2088.45709
1036.1500 2099.04509
1036.3156 2088.90765
1036.4812 2081.76023
1036.6468 2082.27223
1036.8123 2077.23422
1036.9779 2075.32961
1037.1434 2091.50857
1037.3089 2082.90710
1037.4744 2080.40857
1037.6399 2074.98146
1037.8053 2076.23072
1037.9708 2079.56891
1038.1362 2066.19567
1038.3016 2077.50046
1038.4670 2084.21780
1038.6324 2080.83865
1038.7978 2041.37429
1038.9632 2058.12667
1039.1285 2068.01836
1039.2938 2042.37780
1039.4592 2052.67908
1039.6245 2044.58960
1039.7897 2048.70602
1039.9550 2050.26247
1040.1203 2042.37780
1040.2855 2042.68499
1040.4507 2052.53572
1040.6159 2033.53057
1040.7811 2042.11156
1040.9463 2041.06710
1041.1115 2022.14386
1041.2766 2014.91453
1041.4418 2010.14277
1041.6069 1990.80994
1041.7720 1993.00127
1041.9371 1996.72857
1042.1021 2008.36103
1042.2672 1994.20957
1042.4323 2005.28908
1042.5973 1997.67064
1042.7623 1990.87138
1042.9273 1988.55718
1043.0923 1992.24352
1043.2572 1983.82637
1043.4222 1971.00608
1043.5871 1963.40812
1043.7521 1982.88430
1043.9170 2001.88945
1044.0819 1965.57897
1044.2467 1963.14188
1044.4116 1960.45905
1044.5765 1955.95351
1044.7413 1964.41162
1044.9061 1952.10333
1045.0709 1961.95406
1045.2357 1943.70666
1045.4005 1940.38895
1045.5652 1940.85998
1045.7300 1937.93139
1045.8947 1928.40833
1046.0594 1934.92088
1046.2241 1925.80741
1046.3888 1931.15261
1046.5535 1931.80796
1046.7181 1927.09763
1046.8828 1924.80391
1047.0474 1915.73141
1047.2120 1919.27439
1047.3766 1916.50964
1047.5412 1895.33364
1047.7057 1908.11296
1047.8703 1909.91518
1048.0348 1906.18787
1048.1993 1898.85615
1048.3639 1913.33528
1048.5283 1885.48291
1048.6928 1881.83752
1048.8573 1884.54084
1049.0217 1876.28753
1049.1861 1874.93587
1049.3506 1883.86501
1049.5150 1867.13311
1049.6793 1879.09325
1049.8437 1870.36890
1050.0081 1873.23606
1050.1724 1864.73699
1050.3367 1870.12314
1050.5010 1856.62703
1050.6653 1863.20101
1050.8296 1853.82131
1050.9939 1863.28293
1051.1581 1841.61542
1051.3224 1857.44622
1051.4866 1844.09346
1051.6508 1846.14143
1051.8150 1842.08645
1051.9791 1829.77816
1052.1433 1830.31063
1052.3074 1833.25971
1052.4716 1816.34348
1052.6357 1818.06378
1052.7998 1813.51729
1052.9639 1824.90399
1053.1279 1803.19552
1053.2920 1808.47928
1053.4560 1811.94035
1053.6201 1820.76710
1053.7841 1808.86840
1053.9481 1809.76950
1054.1120 1806.22652
1054.2760 1804.97726
1054.4399 1811.18260
1054.6039 1803.58464
1054.7678 1793.16048
1054.9317 1791.84978
1055.0956 1795.10605
1055.2595 1796.58059
1055.4233 1776.85865
1055.5872 1777.69831
1055.7510 1765.69722
1055.9148 1776.32618
1056.0786 1767.11032
1056.2424 1786.52506
1056.4062 1756.91143
1056.5699 1768.99445
1056.7336 1755.90793
1056.8974 1750.52177
1057.0611 1748.47380
1057.2248 1743.12860
1057.3885 1733.50315
1057.5521 1739.62658
1057.7158 1716.58693
1057.8794 1737.47621
1058.0430 1741.69502
1058.2066 1738.76643
1058.3702 1727.13397
1058.5338 1738.70499
1058.6973 1727.33876
1058.8609 1730.08304
1059.0244 1716.03397
1059.1879 1733.66699
1059.3514 1711.07789
1059.5149 1715.56294
1059.6784 1707.86258
1059.8418 1705.75317
1060.0053 1701.35004
1060.1687 1704.97494
1060.3321 1685.70356
1060.4955 1697.82753
1060.6589 1697.49986
1060.8222 1698.07329
1060.9856 1686.35891
1061.1489 1692.62569
1061.3122 1686.64562
1061.4755 1694.48934
1061.6388 1683.24600
1061.8021 1695.59525
1061.9654 1679.45725
1062.1286 1669.68844
1062.2918 1665.24435
1062.4550 1668.99213
1062.6182 1665.42867
1062.7814 1671.59305
1062.9446 1669.42221
1063.1077 1658.01502
1063.2709 1642.14326
1063.4340 1645.19474
1063.5971 1639.05083
1063.7602 1658.46557
1063.9233 1647.59086
1064.0863 1651.52296
1064.2494 1639.87002
1064.4124 1652.34215
1064.5754 1635.09825
1064.7384 1644.25267
1064.9014 1633.84899
1065.0644 1623.62963
1065.2274 1624.01874
1065.3903 1629.97833
1065.5532 1620.74199
1065.7162 1620.16856
1065.8790 1623.09715
1066.0419 1620.78295
1066.2048 1620.63959
1066.3677 1620.12760
1066.5305 1605.97613
1066.6933 1612.42724
1066.8561 1599.52503
1067.0189 1603.29330
1067.1817 1586.17228
1067.3445 1594.26175
1067.5072 1580.64276
1067.6699 1584.49294
1067.8327 1575.09277
1067.9954 1575.99387
1068.1580 1575.35900
1068.3207 1574.35550
1068.4834 1566.06122
1068.6460 1575.76860
1068.8086 1561.16658
1068.9713 1568.25255
1069.1339 1549.55460
1069.2964 1563.56270
1069.4590 1545.45866
1069.6216 1563.19407
1069.7841 1554.51068
1069.9466 1553.09758
1070.1091 1544.16844
1070.2716 1544.22988
1070.4341 1537.28726
1070.5966 1549.08356
1070.7590 1530.40609
1070.9214 1539.58099
1071.0839 1532.88413
1071.2463 1532.51550
1071.4086 1524.61034
1071.5710 1515.18968
1071.7334 1520.14576
1071.8957 1520.35056
1072.0580 1515.12824
1072.2204 1511.11422
1072.3827 1499.64560
1072.5449 1507.63268
1072.7072 1493.09210
1072.8695 1498.88785
1073.0317 1493.62457
1073.1939 1487.50114
1073.3561 1482.42218
1073.5183 1499.52272
1073.6805 1479.96462
1073.8427 1489.11904
1074.0048 1473.34968
1074.1669 1491.90427
1074.3291 1476.93362
1074.4912 1482.52458
1074.6532 1470.81020
1074.8153 1468.29120
1074.9774 1473.63639
1075.1394 1465.79267
1075.3014 1458.48143
1075.4635 1465.46500
1075.6255 1446.23457
1075.7874 1460.59083
1075.9494 1440.62314
1076.1114 1458.68622
1076.2733 1450.39195
1076.4352 1449.85948
1076.5971 1436.77296
1076.7590 1443.01926
1076.9209 1425.73440
1077.0828 1435.99473
1077.2446 1424.30083
1077.4064 1431.65303
1077.5683 1415.45360
1077.7301 1425.73440
1077.8918 1417.35821
1078.0536 1419.07851
1078.2154 1418.70987
1078.3771 1421.72039
1078.5388 1409.98552
1078.7006 1414.14290
1078.8623 1401.69125
1079.0239 1406.93405
1079.1856 1393.41746
1079.3473 1410.45656
1079.5089 1397.92299
1079.6705 1400.31911
1079.8321 1393.58130
1079.9937 1402.48996
1080.1553 1375.17006
1080.3169 1379.04072
1080.4784 1379.73703
1080.6399 1385.79901
1080.8014 1375.37485
1080.9629 1380.74053
1081.1244 1375.39533
1081.2859 1375.25198
1081.4474 1358.56103
1081.6088 1372.52818
1081.7702 1368.59608
1081.9316 1363.72191
1082.0930 1354.75181
1082.2544 1365.54460
1082.4158 1352.27377
1082.5771 1356.18539
1082.7385 1349.28373
1082.8998 1360.21988
1083.0611 1353.46159
1083.2224 1343.77470
1083.3837 1344.40957
1083.5449 1348.28023
1083.7062 1331.24113
1083.8674 1331.75312
1084.0286 1320.79649
1084.1898 1341.70625
1084.3510 1324.42139
1084.5122 1324.09372
1084.6734 1317.04870
1084.8345 1326.96087
1084.9956 1310.90480
1085.1567 1314.38634
1085.3178 1313.91531
1085.4789 1310.90480
1085.6400 1304.71993
1085.8010 1305.29336
1085.9621 1308.09908
1086.1231 1306.46070
1086.2841 1283.07290
1086.4451 1305.08857
1086.6061 1289.33969
1086.7670 1299.47713
1086.9280 1295.01256
1087.0889 1290.91662
1087.2498 1287.51699
1087.4107 1288.76625
1087.5716 1288.50002
1087.7325 1274.45095
1087.8933 1270.53933
1088.0542 1294.86920
1088.2150 1273.11977
1088.3758 1277.52291
1088.5366 1269.29007
1088.6974 1273.69320
1088.8582 1268.40945
1089.0189 1279.42752
1089.1796 1271.25612
1089.3404 1282.64283
1089.5011 1261.91738
1089.6618 1282.15132
1089.8224 1270.37550
1089.9831 1278.56737
1090.1438 1269.69967
1090.3044 1276.33508
1090.4650 1261.77403
1090.6256 1275.39302
1090.7862 1253.45927
1090.9468 1271.19468
1091.1073 1254.72901
1091.2679 1260.11517
1091.4284 1272.40298
1091.5889 1268.75760
1091.7494 1255.79396
1091.9099 1260.58620
1092.0703 1258.64063
1092.2308 1259.29598
1092.3912 1259.00927
1092.5516 1269.59727
1092.7121 1251.92330
1092.8724 1264.57974
1093.0328 1251.90282
1093.1932 1268.47088
1093.3535 1255.40484
1093.5139 1264.76406
1093.6742 1255.67108
1093.8345 1266.46387
1093.9948 1251.51370
1094.1550 1263.20760
1094.3153 1253.43879
1094.4755 1264.00631
1094.6358 1254.99525
1094.7960 1253.50023
1094.9562 1251.80042
1095.1163 1260.79100
1095.2765 1247.17201
1095.4367 1255.34340
1095.5968 1245.92275
1095.7569 1263.02329
1095.9170 1244.07958
1096.0771 1263.31000
1096.2372 1256.42883
1096.3973 1259.91038
1096.5573 1253.78695
1096.7173 1256.71554
1096.8773 1255.32293
1097.0374 1251.16555
1097.1973 1247.74544
1097.3573 1257.98528
1097.5173 1251.98474
1097.6772 1256.12163
1097.8371 1244.22293
1097.9970 1255.97827
1098.1569 1253.00872
1098.3168 1258.37440
1098.4767 1254.01223
1098.6365 1247.88880
1098.7964 1260.75004
1098.9562 1261.30299
1099.1160 1242.07257
1099.2758 1260.66812
1099.4356 1245.45172
1099.5953 1260.48381
1099.7551 1259.23455
1099.9148 1262.49082
1100.0745 1251.43178
1100.2342 1249.17902
1100.3939 1249.40430
1100.5536 1265.54229
1100.7132 1248.03216
1100.8729 1256.24451
1101.0325 1245.98419
1101.1921 1257.61665
1101.3517 1245.14452
1101.5113 1249.99821
1101.6709 1248.11407
1101.8304 1244.65301
1101.9899 1250.73548
1102.1495 1259.31646
1102.3090 1244.44821
1102.4685 1257.90337
1102.6279 1244.28437
1102.7874 1260.21757
1102.9468 1250.57164
1103.1063 1250.81739
1103.2657 1251.65706
1103.4251 1243.73142
1103.5845 1253.82791
1103.7438 1256.73602
1103.9032 1250.73548
1104.0625 1253.72551
1104.2219 1248.64655
1104.3812 1247.74544
1104.5405 1250.69452
1104.6997 1250.42828
1104.8590 1252.76296
1105.0183 1256.40835
1105.1775 1247.15153
1105.3367 1259.84894
1105.4959 1246.76242
1105.6551 1256.67458
1105.8143 1247.00817
1105.9735 1259.27550
1106.1326 1252.88584
1106.2917 1256.69506
1106.4508 1246.00467
1106.6099 1259.07071
1106.7690 1243.66998
1106.9281 1254.85189
1107.0872 1247.54064
1107.2462 1256.10115
1107.4052 1247.78640
1107.5642 1248.38031
1107.7232 1248.76942
1107.8822 1256.49027
1108.0412 1251.92330
1108.2001 1253.54119
1108.3591 1243.66998
1108.5180 1256.14211
1108.6769 1251.92330
1108.8358 1254.91333
1108.9947 1246.47570
1109.1535 1249.95725
1109.3124 1244.50965
1109.4712 1250.20300
1109.6300 1247.74544
1109.7888 1260.91388
1109.9476 1246.59858
1110.1064 1262.79801
1110.2651 1252.47625
1110.4239 1253.15208
1110.5826 1240.74139
1110.7413 1258.12864
1110.9000 1243.07607
1111.0587 1254.93381
1111.2173 1245.88179
1111.3760 1254.29894
1111.5346 1253.00872
1111.6932 1251.49322
1111.8518 1244.98068
1112.0104 1247.49968
1112.1690 1251.08363
1112.3276 1254.25798
1112.4861 1237.89471
1112.6446 1258.80447
1112.8032 1259.91038
1112.9617 1253.11112
1113.1201 1256.42883
1113.2786 1251.26795
1113.4371 1242.31832
1113.5955 1249.69101
1113.7539 1247.58160
1113.9123 1251.82090
1114.0707 1253.43879
1114.2291 1256.61315
1114.3875 1249.71149
1114.5458 1256.12163
1114.7042 1250.55116
1114.8625 1240.63899
1115.0208 1242.62552
1115.1791 1252.92680
1115.3374 1249.52717
1115.4956 1257.49377
1115.6539 1242.03161
1115.8121 1250.63308
1115.9703 1245.96371
1116.1285 1250.73547
1116.2867 1243.44471
1116.4449 1252.72200
1116.6030 1253.31592
1116.7612 1258.55872
1116.9193 1243.93622
1117.0774 1256.08067
1117.2355 1251.26795
1117.3936 1258.04672
1117.5516 1249.05614
1117.7097 1253.21352
1117.8677 1249.56813
1118.0257 1252.94728
1118.1837 1248.31887
1118.3417 1258.04672
1118.4997 1251.90282
1118.6577 1254.48326
1118.8156 1259.72606
1118.9735 1249.58861
1119.1315 1251.45226
1119.2894 1259.07071
1119.4472 1244.38677
1119.6051 1259.68510
1119.7630 1248.83086
1119.9208 1257.53473
1120.0786 1256.36739
1120.2364 1254.74949
1120.3942 1246.66002
1120.5520 1246.82385
1120.7098 1255.42532
1120.8675 1257.71905
1121.0253 1254.25798
1121.1830 1256.75650
1121.3407 1248.40079
1121.4984 1256.98178
1121.6560 1255.95780
