# Averages = 100
# wavelength [µm]	intensity
446.8250 14.33578
447.0374 36746.70328
447.2498 1231.52553
447.4621 1219.19676
447.6745 1235.94914
447.8868 1244.26389
448.0992 1235.64195
448.3115 1235.94914
448.5238 1243.95670
448.7360 1244.63253
448.9483 1244.67349
449.1606 1239.92220
449.3728 1268.04081
449.5850 1232.40615
449.7972 1252.49673
450.0094 1237.21888
450.2216 1243.87478
450.4337 1252.66057
450.6459 1700.98140
450.8580 2048.60362
451.0701 2075.90304
451.2822 2100.66299
451.4943 2087.94510
451.7064 2074.01891
451.9184 2056.07871
452.1305 2123.02680
452.3425 2237.26250
452.5545 2169.45426
452.7665 2159.62401
452.9785 2276.99310
453.1905 2314.83956
453.4024 2230.38133
453.6143 2329.56445
453.8263 2317.82959
454.0382 2423.42286
454.2501 2297.04271
454.4619 2283.09604
454.6738 2423.56622
454.8856 2484.71857
455.0975 2320.41003
455.3093 2331.44858
455.5211 2417.42231
455.7329 2372.61276
455.9446 2411.85184
456.1564 2410.15202
456.3681 2472.49219
456.5798 2543.12663
456.7916 2493.15620
457.0033 2482.69108
457.2149 2439.92949
457.4266 2460.53205
457.6382 2526.86576
457.8499 2492.60325
458.0615 2613.72012
458.2731 2529.58956
458.4847 2619.70019
458.6963 2637.59943
458.9078 2663.85439
459.1194 2827.83525
459.3309 2830.84576
459.5424 2670.10070
459.7539 2577.04100
459.9654 2637.72231
460.1769 2705.30528
460.3883 2689.47448
460.5998 2546.73106
460.8112 2509.90858
461.0226 2596.86533
461.2340 2705.32576
461.4454 2654.80237
461.6567 2593.46571
461.8681 2593.36331
462.0794 2546.75154
462.2907 2663.09664
462.5020 2742.10728
462.7133 2847.78247
462.9246 2908.62762
463.1359 2759.45357
463.3471 2514.72131
463.5583 2568.93104
463.7696 2920.93591
463.9808 2777.61906
464.1919 2675.77357
464.4031 2666.29147
464.6143 2825.43913
464.8254 2655.84683
465.0365 2627.83062
465.2476 2740.81706
465.4587 2787.42883
465.6698 2623.34557
465.8809 2585.74486
466.0919 2609.76754
466.3030 2797.46387
466.5140 2756.21778
466.7250 2649.43669
466.9360 2703.17539
467.1469 2652.59056
467.3579 2535.16004
467.5688 2534.27941
467.7798 2641.75681
467.9907 2835.26938
468.2016 2645.27932
468.4125 2634.67084
468.6233 2523.85525
468.8342 2543.02424
469.0450 2820.42160
469.2559 2799.18417
469.4667 2780.36333
469.6775 2566.41204
469.8882 2595.18600
470.0990 2649.53909
470.3098 2812.65980
470.5205 2670.79701
470.7312 2818.18932
470.9419 2911.45381
471.1526 2757.30321
471.3633 2625.57786
471.5739 2669.11767
471.7846 2644.52157
471.9952 2483.83794
472.2058 2548.45135
472.4164 2524.69492
472.6270 2583.47162
472.8376 2628.15830
473.0481 2770.81980
473.2587 2816.12087
473.4692 2749.97148
473.6797 2683.28962
473.8902 2597.86884
474.1007 2539.33789
474.3111 2513.16485
474.5216 2468.00714
474.7320 2583.45114
474.9424 2714.95121
475.1528 2793.61369
475.3632 2612.22510
475.5736 2608.72307
475.7840 2556.60227
475.9943 2572.90410
476.2046 2621.78911
476.4149 2645.09500
476.6252 2726.23552
476.8355 2870.78115
477.0458 2882.49554
477.2561 2920.44440
477.4663 2803.50538
477.6765 2742.72167
477.8867 2681.71268
478.0969 2714.15250
478.3071 2731.62168
478.5173 2671.12468
478.7274 2747.04288
478.9375 2904.55216
479.1477 2913.44034
479.3578 2910.36839
479.5679 3004.59543
479.7779 2847.90534
479.9880 2799.36848
480.1980 2872.56289
480.4081 2947.43663
480.6181 2873.52543
480.8281 2773.50264
481.0381 2899.57560
481.2480 2939.47003
481.4580 2859.51733
481.6679 2860.68467
481.8778 2804.91848
482.0877 2879.30070
482.2976 2911.47429
482.5075 2967.44528
482.7174 2933.48996
482.9272 2938.89660
483.1371 2876.16731
483.3469 2895.70493
483.5567 2995.23622
483.7665 3008.19986
483.9762 3013.54506
484.1860 2972.27849
484.3957 3013.17642
484.6055 2962.69399
484.8152 2997.36610
485.0249 3050.20370
485.2346 3022.24892
485.4442 3044.83802
485.6539 3107.97690
485.8635 3110.92597
486.0732 3029.76497
486.2828 3079.20293
486.4924 3067.03800
486.7019 3060.66882
486.9115 3096.93834
487.1210 3132.51156
487.3306 3154.48627
487.5401 3188.52351
487.7496 3183.28071
487.9591 3272.81790
488.1686 3258.15444
488.3780 3207.05762
488.5875 3242.58988
488.7969 3253.50555
489.0063 3244.16682
489.2157 3309.96805
489.4251 3289.40645
489.6345 3302.69776
489.8438 3302.26769
490.0531 3293.89150
490.2625 3332.55715
490.4718 3311.97506
490.6811 3368.13037
490.8903 3408.78255
491.0996 3412.55081
491.3089 3415.02885
491.5181 3449.31185
491.7273 3471.04080
491.9365 3446.54709
492.1457 3519.76197
492.3549 3505.77435
492.5640 3498.29926
492.7732 3545.34110
492.9823 3539.21768
493.1914 3630.70044
493.4005 3605.69474
493.6096 3597.48239
493.8187 3591.07224
494.0277 3662.56683
494.2368 3671.57790
494.4458 3694.86330
494.6548 3742.29426
494.8638 3773.75106
495.0728 3721.36402
495.2817 3774.91840
495.4907 3754.97118
495.6996 3799.33019
495.9085 3817.74143
496.1174 3851.38955
496.3263 3858.72128
496.5352 3896.48582
496.7440 3902.71165
496.9529 3941.76641
497.1617 3962.28706
497.3705 3946.84537
497.5793 4025.40546
497.7881 4005.70400
497.9969 4062.61705
498.2056 4086.04581
498.4144 4109.78177
498.6231 4132.10463
498.8318 4156.65977
499.0405 4186.53964
499.2492 4144.72012
499.4578 4225.88112
499.6665 4226.92558
499.8751 4290.69933
500.0837 4332.70317
500.2923 4338.74467
500.5009 4328.17716
500.7095 4395.92396
500.9180 4390.70164
501.1266 4476.04050
501.3351 4476.16338
501.5436 4526.58437
501.7521 4503.48328
501.9606 4563.85740
502.1691 4571.10721
502.3775 4599.38966
502.5860 4637.15420
502.7944 4669.34827
503.0028 4739.22496
503.2112 4766.58583
503.4196 4751.61517
503.6279 4852.39572
503.8363 4785.36570
504.0446 4922.90728
504.2529 4913.83478
504.4612 4974.12698
504.6695 4982.21646
504.8778 5001.16017
505.0860 5025.34668
505.2943 5055.36990
505.5025 5155.69989
505.7107 5142.34713
505.9189 5231.18802
506.1271 5255.88652
506.3353 5273.58097
506.5434 5276.55052
506.7516 5357.03570
506.9597 5365.45285
507.1678 5393.79674
507.3759 5456.30074
507.5840 5473.91327
507.7920 5504.79664
508.0001 5514.68833
508.2081 5651.34929
508.4161 5628.51443
508.6241 5692.06290
508.8321 5700.93061
509.0401 5760.60842
509.2480 5805.04934
509.4560 5788.80895
509.6639 5855.94136
509.8718 5915.08670
510.0797 5946.91214
510.2876 5925.08079
510.4955 6117.52841
510.7033 6132.47858
510.9112 6198.73037
511.1190 6195.20787
511.3268 6183.14533
511.5346 6279.80946
511.7424 6316.14042
511.9501 6387.73741
512.1579 6436.49955
512.3656 6483.00892
512.5733 6478.36003
512.7810 6612.46102
512.9887 6656.69715
513.1964 6731.71424
513.4040 6732.14431
513.6117 6783.52785
513.8193 6845.54034
514.0269 6890.45230
514.2345 6962.47936
514.4421 6962.27456
514.6497 7020.66215
514.8572 7116.09750
515.0647 7135.02073
515.2723 7222.59187
515.4798 7259.80346
515.6873 7375.47274
515.8947 7318.66208
516.1022 7377.02919
516.3097 7459.45994
516.5171 7577.75061
516.7245 7564.62313
516.9319 7646.13229
517.1393 7725.20436
517.3467 7792.07054
517.5540 7827.45944
517.7614 7916.58704
517.9687 7869.68856
518.1760 7941.87945
518.3833 8031.43713
518.5906 8045.71147
518.7978 8213.41963
519.0051 8185.79253
519.2123 8325.56640
519.4196 8254.31757
519.6268 8390.56893
519.8340 8457.82422
520.0411 8556.10624
520.2483 8629.05489
520.4554 8654.01963
520.6626 8738.27306
520.8697 8800.77707
521.0768 8942.08691
521.2839 8970.06217
521.4909 9048.04882
521.6980 9223.92837
521.9050 9256.32724
522.1121 9336.79193
522.3191 9406.25903
522.5261 9466.34643
522.7331 9567.55705
522.9400 9737.82517
523.1470 9728.85507
523.3539 9797.25722
523.5608 9838.66715
523.7677 9937.99364
523.9746 9981.55393
524.1815 10086.86048
524.3884 10196.73401
524.5952 10141.41837
524.8020 10353.38314
525.0089 10289.28172
525.2157 10417.34120
525.4225 10507.45183
525.6292 10543.08648
525.8360 10619.29140
526.0427 10745.18004
526.2494 10868.26296
526.4562 10958.66030
526.6629 10945.67618
526.8695 11019.28018
527.0762 11207.81618
527.2829 11180.96731
527.4895 11444.29513
527.6961 11533.48417
527.9027 11629.24719
528.1093 11621.64923
528.3159 11688.14677
528.5224 11752.57587
528.7290 12029.19501
528.9355 11979.14265
529.1420 12219.96330
529.3485 12112.50637
529.5550 12328.87427
529.7615 12322.85325
529.9680 12565.76282
530.1744 12573.58606
530.3808 12716.75955
530.5872 12680.94058
530.7936 12833.10466
531.0000 12909.86253
531.2064 13009.90580
531.4127 13113.18487
531.6191 13216.89400
531.8254 13236.28827
532.0317 13400.28960
532.2380 13426.44217
532.4443 13634.70011
532.6505 13488.04507
532.8568 13740.08858
533.0630 13923.68898
533.2692 13894.58734
533.4754 14032.43612
533.6816 14304.85692
533.8878 14250.27855
534.0939 14469.12450
534.3001 14485.75400
534.5062 14574.82016
534.7123 14667.94130
534.9184 14689.60881
535.1245 14707.40566
535.3306 14858.25904
535.5366 15026.58159
535.7426 15160.49827
535.9487 15377.68535
536.1547 15204.63199
536.3607 15374.57244
536.5666 15418.87000
536.7726 15552.47948
536.9785 15686.06849
537.1845 15894.14211
537.3904 15807.47207
537.5963 16057.18090
537.8022 16111.10392
538.0080 16314.83585
538.2139 16395.71014
538.4197 16541.07496
538.6256 16529.46298
538.8314 16668.43814
539.0372 16735.07904
539.2430 16966.76574
539.4487 16677.06008
539.6545 17135.21117
539.8602 17037.89170
540.0659 17235.07013
540.2716 17522.03151
540.4773 17503.06732
540.6830 17807.78459
540.8887 17791.40084
541.0943 17736.80199
541.2999 17799.44936
541.5056 17866.17218
541.7112 18060.72921
541.9167 18013.66689
542.1223 18256.90414
542.3279 18315.45556
542.5334 18416.11323
542.7389 18732.29912
542.9444 18796.68726
543.1499 18902.30101
543.3554 18794.43450
543.5609 19071.89330
543.7663 19219.53137
543.9718 19073.01968
544.1772 19371.51113
544.3826 19351.76871
544.5880 19726.79275
544.7934 19799.92571
544.9987 19803.69398
545.2041 20161.31028
545.4094 20007.69214
545.6147 20155.78076
545.8200 20405.22336
546.0253 20471.76186
546.2306 20671.90985
546.4358 20543.74796
546.6411 20848.09660
546.8463 20771.68688
547.0515 21117.87552
547.2567 21115.00837
547.4619 21269.42521
547.6670 21433.30367
547.8722 21493.47299
548.0773 21909.08777
548.2824 21767.75745
548.4876 21731.77463
548.6926 22087.60920
548.8977 22255.74744
549.1028 22502.60959
549.3078 22470.59984
549.5129 22536.74923
549.7179 22555.79534
549.9229 22732.18689
550.1279 22696.55223
550.3328 22842.01945
550.5378 22724.48653
550.7427 22976.81676
550.9476 23056.15507
551.1526 22771.85604
551.3575 23226.46415
551.5623 23251.46985
551.7672 23215.75327
551.9720 23477.83183
552.1769 23398.71880
552.3817 23751.46094
552.5865 23479.12205
552.7913 23682.91542
552.9961 23623.72913
553.2008 23773.35372
553.4056 24097.81341
553.6103 24006.65832
553.8150 24368.63680
554.0197 24379.61391
554.2244 24296.24110
554.4291 24174.36648
554.6337 24501.26325
554.8384 24519.01914
555.0430 24504.58096
555.2476 24404.04618
555.4522 24411.27551
555.6568 24597.86594
555.8613 24724.81952
556.0659 24949.33834
556.2704 24721.41990
556.4750 25009.17998
556.6795 25080.61313
556.8839 24892.58912
557.0884 25145.94334
557.2929 25178.11693
557.4973 25104.32861
557.7018 25103.59134
557.9062 25154.68816
558.1106 25248.13698
558.3150 25168.63483
558.5193 25365.89518
558.7237 25389.30346
558.9280 25319.91828
559.1323 25259.01169
559.3367 25249.89823
559.5410 25348.44649
559.7452 25017.41282
559.9495 25493.87275
560.1537 25408.30861
560.3580 25427.84624
560.5622 25668.21633
560.7664 25722.42606
560.9706 25719.64082
561.1748 25927.57109
561.3789 25964.96700
561.5831 25945.67513
561.7872 25921.38623
561.9913 26022.65828
562.1954 25888.27057
562.3995 26070.17115
562.6036 26072.87447
562.8076 25835.98593
563.0117 26183.48527
563.2157 26154.42459
563.4197 26304.82741
563.6237 26279.73980
563.8277 26028.65883
564.0316 25881.69659
564.2356 26145.82312
564.4395 26289.18093
564.6434 26262.29110
564.8473 26536.98515
565.0512 26460.30920
565.2551 26493.95733
565.4590 26647.88266
565.6628 26685.64720
565.8666 26803.61020
566.0705 26762.54843
566.2743 26649.58247
566.4780 26602.41775
566.6818 26629.96293
566.8856 26922.61767
567.0893 26719.09053
567.2930 26781.71742
567.4967 26662.79187
567.7004 26850.20149
567.9041 26960.54605
568.1078 26854.68654
568.3114 26886.79869
568.5151 27026.85928
568.7187 26487.81342
568.9223 26947.84864
569.1259 26949.63038
569.3295 27314.61937
569.5330 27270.62900
569.7366 27146.82929
569.9401 27283.65408
570.1436 27296.53580
570.3471 27602.35897
570.5506 27573.46214
570.7541 27369.11581
570.9575 27572.66343
571.1609 27374.66581
571.3644 27665.19066
571.5678 27711.82290
571.7712 27900.29747
571.9746 27834.76247
572.1779 27665.29305
572.3813 27501.04596
572.5846 27940.29430
572.7879 27763.82083
572.9912 28122.80927
573.1945 28101.44896
573.3978 27899.43732
573.6010 28027.35345
573.8043 28315.99417
574.0075 27811.08795
574.2107 28024.30198
574.4139 27818.05104
574.6171 27929.56294
574.8203 27610.83757
575.0234 27858.70322
575.2266 27563.69333
575.4297 27723.94688
575.6328 27760.11401
575.8359 27827.18498
576.0390 27198.45858
576.2420 27411.14013
576.4451 27055.83803
576.6481 27368.76766
576.8512 27689.47957
577.0542 27118.58780
577.2571 27406.24549
577.4601 27387.40417
577.6631 27113.11972
577.8660 27128.86860
578.0689 26699.12284
578.2719 26811.16721
578.4748 26858.74152
578.6776 26635.75868
578.8805 26639.46551
579.0834 26393.15631
579.2862 26670.10312
579.4890 26720.17596
579.6918 26885.05792
579.8946 26376.67016
580.0974 26525.10693
580.3002 26356.96870
580.5029 26152.68382
580.7057 26407.90168
580.9084 25990.13654
581.1111 26324.63127
581.3138 26077.33905
581.5164 25914.58697
581.7191 25791.05349
581.9217 25786.09741
582.1244 25547.11994
582.3270 25536.90057
582.5296 25644.23461
582.7322 25805.02064
582.9347 25621.29736
583.1373 25372.96067
583.3398 25394.01379
583.5424 25314.47069
583.7449 25232.20378
583.9474 25144.28448
584.1498 24970.98537
584.3523 25192.14551
584.5548 24914.07232
584.7572 24971.08777
584.9596 25063.06204
585.1620 25302.28527
585.3644 24818.90321
585.5668 24773.97077
585.7691 24907.17066
585.9715 24709.48024
586.1738 24896.17307
586.3761 24689.10295
586.5784 24925.33614
586.7807 24848.49636
586.9830 24818.80081
587.1852 24677.53192
587.3875 24550.57834
587.5897 24773.92981
587.7919 24649.67955
587.9941 24449.55204
588.1963 24447.48360
588.3984 24342.89383
588.6006 24097.99773
588.8027 24514.04258
589.0048 24364.11079
589.2069 24332.26487
589.4090 24497.92507
589.6111 24641.75391
589.8131 24613.90154
590.0152 24745.19681
590.2172 24395.58807
590.4192 24766.70048
590.6212 24474.84446
590.8232 24247.13081
591.0252 24571.87722
591.2271 24590.30894
591.4291 24580.66300
591.6310 24466.38635
591.8329 24398.16851
592.0348 24568.84622
592.2367 24477.46586
592.4385 24736.26767
592.6404 24959.12763
592.8422 25036.35653
593.0440 25125.81180
593.2458 25273.18364
593.4476 25307.44615
593.6494 25370.31879
593.8512 25491.00559
594.0529 25464.09528
594.2546 25502.55614
594.4563 25454.28551
594.6580 25333.63967
594.8597 25388.62763
595.0614 25372.65348
595.2630 25596.02543
595.4647 25664.46855
595.6663 25531.51441
595.8679 25681.58956
596.0695 25933.67404
596.2711 25757.48729
596.4727 25843.03094
596.6742 25954.66572
596.8757 26151.27072
597.0773 26225.12047
597.2788 26031.40311
597.4802 26226.43117
597.6817 26381.50336
597.8832 26221.29077
598.0846 26360.30689
598.2860 26265.85457
598.4875 26092.37114
598.6889 26514.94901
598.8902 26572.10782
599.0916 26684.68466
599.2930 26556.56373
599.4943 26777.17093
599.6956 26796.42183
599.8969 26695.17026
600.0982 26595.57754
600.2995 26435.03727
600.5008 26902.19942
600.7020 26752.14475
600.9032 26967.42722
601.1045 27021.53456
601.3057 26901.21639
601.5068 27184.04088
601.7080 27307.47195
601.9092 27017.74582
602.1103 27470.63363
602.3115 27397.60306
602.5126 27354.06324
602.7137 27227.29398
602.9147 27400.18350
603.1158 27550.15625
603.3169 27653.47628
603.5179 27781.74056
603.7189 27608.74864
603.9199 27762.67397
604.1209 27598.09920
604.3219 27677.80614
604.5229 27875.96760
604.7238 27841.33645
604.9247 27924.09487
605.1257 27921.86258
605.3266 28039.57982
605.5275 27874.88218
605.7283 28048.42705
605.9292 28225.61730
606.1300 27708.73047
606.3309 27873.14140
606.5317 28181.40166
606.7325 28431.80680
606.9332 28379.93175
607.1340 28363.77328
607.3348 28310.48513
607.5355 28221.00937
607.7362 28552.24784
607.9369 28138.94727
608.1376 28448.47726
608.3383 28383.00370
608.5390 28568.46775
608.7396 28483.35417
608.9402 28769.12773
609.1409 28787.68233
609.3415 28554.11149
609.5421 28509.09714
609.7426 28585.40445
609.9432 28534.00044
610.1437 28241.75530
610.3443 28886.49682
610.5448 28690.83389
610.7453 28849.59242
610.9457 28661.79369
611.1462 28703.98185
611.3467 28578.76904
611.5471 28905.19477
611.7475 28603.44706
611.9479 29057.62509
612.1483 28620.60904
612.3487 29096.98705
612.5491 28637.60718
612.7494 29232.74690
612.9497 28761.87792
613.1501 28968.45653
613.3504 28925.96118
613.5506 29463.18434
613.7509 29146.77317
613.9512 28809.28840
614.1514 28835.91199
614.3516 29246.89836
614.5519 29035.83470
614.7521 29306.26897
614.9522 29080.99241
615.1524 28891.16619
615.3526 29184.12812
615.5527 29451.77715
615.7528 29059.26346
615.9529 29068.86844
616.1530 29280.77176
616.3531 29532.46712
616.5532 29607.54566
616.7532 29202.53936
616.9532 29160.76080
617.1533 28973.65837
617.3533 29186.03273
617.5532 28970.09490
617.7532 29133.83001
617.9532 28832.20517
618.1531 29374.24106
618.3530 28784.22126
618.5530 29007.92089
618.7528 29067.76253
618.9527 29075.89297
619.1526 28830.13672
619.3524 28739.22739
619.5523 28871.89480
619.7521 28883.97782
619.9519 28947.71061
620.1517 28936.18054
620.3515 29023.28065
620.5512 29104.78981
620.7510 28928.60306
620.9507 28627.49021
621.1504 28524.76410
621.3501 28708.81505
621.5498 28956.10728
621.7495 28776.23418
621.9492 28824.32049
622.1488 28351.62882
622.3484 28336.88345
622.5480 28210.81049
622.7476 28786.69930
622.9472 28256.35732
623.1468 28230.94202
623.3463 28980.60098
623.5459 28784.36462
623.7454 28465.18869
623.9449 28462.15770
624.1444 28537.64582
624.3439 28630.78744
624.5433 28313.57756
624.7428 28330.45283
624.9422 28100.69121
625.1416 28101.18272
625.3410 27951.37381
625.5404 28089.12019
625.7398 27808.05696
625.9391 27979.10331
626.1385 27610.10030
626.3378 27651.83790
626.5371 28045.08886
626.7364 27489.33158
626.9357 27575.91970
627.1350 27465.47274
627.3342 27394.98166
627.5335 27264.91516
627.7327 27309.19225
627.9319 27281.40131
628.1311 27791.77560
628.3303 27206.13846
628.5294 27222.52221
628.7286 27319.55497
628.9277 27388.32576
629.1268 27171.48683
629.3259 27304.72768
629.5250 27227.31446
629.7241 27165.38388
629.9231 26538.43921
630.1222 27044.28749
630.3212 26931.62873
630.5202 26573.86907
630.7192 26651.71236
630.9182 26335.05543
631.1171 26384.08380
631.3161 26180.33139
631.5150 25910.79823
631.7140 26127.84195
631.9129 26135.97239
632.1118 26168.94469
632.3106 26080.98443
632.5095 25982.12898
632.7083 25696.45782
632.9072 25741.86128
633.1060 25750.58563
633.3048 25357.47803
633.5036 25373.43171
633.7023 25352.82914
633.9011 25472.61483
634.0998 25627.87134
634.2986 25184.26083
634.4973 25264.88936
634.6960 25076.53768
634.8947 24951.44775
635.0933 24830.00320
635.2920 24753.65492
635.4906 24483.50737
635.6892 24541.73112
635.8878 24629.89617
636.0864 24601.90044
636.2850 24216.49320
636.4836 24155.19750
636.6821 23956.42165
636.8806 24044.15663
637.0792 24104.24403
637.2777 23910.71099
637.4761 23657.19293
637.6746 23522.43659
637.8731 23802.06624
638.0715 23425.40383
638.2699 23494.70709
638.4683 23396.99850
638.6667 23141.12529
638.8651 23196.97340
639.0635 23160.58099
639.2618 22965.55293
639.4602 22890.20816
639.6585 22624.93477
639.8568 22750.31141
640.0551 22514.30349
640.2534 22292.26272
640.4516 22331.66564
640.6499 22260.37585
640.8481 22358.35067
641.0463 22203.27848
641.2445 22177.02352
641.4427 21957.19455
641.6409 21798.37458
641.8390 21746.92960
642.0372 21832.61662
642.2353 21638.71493
642.4334 21500.02649
642.6315 21471.37541
642.8296 21285.29697
643.0277 21013.04000
643.2257 21269.11801
643.4237 21028.54313
643.6218 20729.21201
643.8198 20710.37070
644.0178 20565.00588
644.2157 20432.35894
644.4137 20356.42026
644.6116 20671.72553
644.8096 20677.88992
645.0075 20104.17195
645.2054 20118.46677
645.4033 19909.36916
645.6011 19690.09315
645.7990 19594.08437
645.9968 19747.21100
646.1947 19688.53669
646.3925 19697.26104
646.5903 19556.50415
646.7881 19530.98646
646.9858 19144.47331
647.1836 19023.64316
647.3813 18798.22324
647.5790 18855.77116
647.7767 19106.60637
647.9744 18692.05654
648.1721 18676.14382
648.3698 18713.68309
648.5674 18356.86549
648.7650 18410.87043
648.9627 18102.20058
649.1603 18407.53224
649.3578 18222.98978
649.5554 18129.29520
649.7530 18094.93029
649.9505 17819.94952
650.1480 17819.51945
650.3455 17756.99497
650.5430 17362.53570
650.7405 17265.25719
650.9380 17290.97968
651.1354 17327.20824
651.3329 17184.05523
651.5303 17259.17472
651.7277 17154.58496
651.9251 17045.08007
652.1225 16821.93339
652.3198 16681.15602
652.5172 16653.54940
652.7145 16678.39126
652.9118 16561.20649
653.1091 16556.00465
653.3064 16564.36036
653.5037 16415.96455
653.7009 16096.03087
653.8982 16159.53838
654.0954 16221.26416
654.2926 16158.16624
654.4898 16042.51745
654.6870 16022.83647
654.8841 16040.32612
655.0813 15847.91946
655.2784 15890.49673
655.4755 15780.15217
655.6726 15839.03127
655.8697 15532.38891
656.0668 15556.98502
656.2639 15518.58560
656.4609 15428.98697
656.6579 15331.60605
656.8550 15290.56476
657.0520 15124.08538
657.2490 14853.95830
657.4459 15053.38950
657.6429 14978.37240
657.8398 14907.24645
658.0367 14976.59067
658.2337 14842.94023
658.4305 14846.62658
658.6274 14788.15707
658.8243 14683.73114
659.0211 14694.42154
659.2180 14568.26666
659.4148 14563.67921
659.6116 14465.19240
659.8084 14443.23817
660.0052 14454.62488
660.2019 14385.19874
660.3987 14380.48841
660.5954 14360.31592
660.7921 14331.95155
660.9888 14083.75822
661.1855 14165.28785
661.3822 14140.22071
661.5788 14017.97746
661.7755 13944.41442
661.9721 13885.45340
662.1687 14031.49405
662.3653 13931.47126
662.5619 13967.24927
662.7584 13758.19262
662.9550 13779.59390
663.1515 13746.17105
663.3480 13698.67865
663.5445 13803.28890
663.7410 13564.65958
663.9375 13696.63068
664.1340 13596.79221
664.3304 13668.57351
664.5268 13609.51009
664.7233 13753.13414
664.9197 13511.71958
665.1160 13524.08932
665.3124 13480.97957
665.5088 13509.03675
665.7051 13404.40602
665.9014 13305.77585
666.0977 13304.30131
666.2940 13235.12092
666.4903 13274.03233
666.6866 13310.44522
666.8828 13176.11895
667.0791 13292.91460
667.2753 13398.26212
667.4715 13409.32115
667.6677 13458.28808
667.8639 13456.30155
668.0600 13305.77585
668.2562 13273.17218
668.4523 13241.83826
668.6484 13347.94352
668.8445 13080.51976
669.0406 13364.34775
669.2367 13328.87693
669.4327 13365.45366
669.6287 13358.14241
669.8248 13312.84134
670.0208 13331.96937
670.2168 13237.10745
670.4128 13337.66272
670.6087 13275.11775
670.8047 13287.71276
671.0006 13437.29640
671.1965 13217.87703
671.3924 13273.80705
671.5883 13205.95785
671.7842 13271.75909
671.9801 13082.91589
672.1759 13294.57346
672.3717 13238.88919
672.5675 13519.41995
672.7633 13445.18108
672.9591 13589.37856
673.1549 13557.49169
673.3506 13511.35095
673.5464 13455.81004
673.7421 13557.12305
673.9378 13601.60493
674.1335 13514.70962
674.3292 13606.97061
674.5249 13506.19007
674.7205 13362.89370
674.9161 13497.83436
675.1118 13450.50580
675.3074 13506.96830
675.5030 13511.04375
675.6985 13660.93459
675.8941 13730.93416
676.0896 13779.10238
676.2852 13774.33062
676.4807 13692.57570
676.6762 13737.54910
676.8717 13864.89180
677.0671 13983.01863
677.2626 14090.68035
677.4580 14061.53775
677.6534 14016.17525
677.8489 14020.31214
678.0442 14063.42189
678.2396 13913.03954
678.4350 14047.87780
678.6303 14071.96192
678.8257 14183.28950
679.0210 14274.40363
679.2163 14205.79667
679.4116 14302.97279
679.6069 14217.38818
679.8021 14048.06212
679.9974 14251.52782
680.1926 14393.61589
680.3878 14403.99909
680.5830 14464.25033
680.7782 14416.04115
680.9734 14452.26971
681.1685 14582.72532
681.3636 14558.10874
681.5588 14689.83409
681.7539 14687.37653
681.9490 14686.49590
682.1441 14659.38079
682.3391 14714.26635
682.5342 14992.60579
682.7292 15069.48653
682.9242 15193.98255
683.1192 15234.94193
683.3142 15246.73823
683.5092 15373.54845
683.7041 15494.89060
683.8991 15367.22023
684.0940 15364.27116
684.2889 15348.25604
684.4838 15482.88951
684.6787 15502.26329
684.8736 15413.66816
685.0684 15679.18731
685.2633 15676.05392
685.4581 15768.33539
685.6529 16038.99494
685.8477 16153.41495
686.0425 16058.24585
686.2372 16077.45579
686.4320 16050.05397
686.6267 16067.25691
686.8214 16199.61713
687.0161 16192.73595
687.2108 16343.87605
687.4055 16508.18458
687.6002 16617.07508
687.7948 16680.56211
687.9894 16704.81006
688.1841 16793.71238
688.3787 16830.37103
688.5732 16768.74765
688.7678 16785.17235
688.9624 16695.94236
689.1569 16931.45876
689.3514 16971.14840
689.5459 16879.78851
689.7404 17190.85448
689.9349 17138.95896
690.1294 17306.66712
690.3238 17346.70491
690.5182 17414.86131
690.7127 17413.75540
690.9071 17502.24813
691.1015 17547.69256
691.2958 17859.14765
691.4902 17894.18839
691.6845 18298.41646
691.8789 18176.05033
692.0732 18145.02360
692.2675 18209.20695
692.4618 18455.41375
692.6560 18293.13270
692.8503 18623.16287
693.0445 18598.48485
693.2387 18421.25363
693.4329 18762.93674
693.6271 18820.58706
693.8213 18861.52595
694.0155 19016.02471
694.2096 18969.29007
694.4038 18807.39814
694.5979 18920.81465
694.7920 19073.63407
694.9861 19014.36586
695.1801 19047.33816
695.3742 19163.43750
695.5682 19303.00657
695.7623 19430.86126
695.9563 19375.83234
696.1503 19677.19095
696.3443 19501.55715
696.5382 19864.00665
696.7322 19770.78312
696.9261 20055.90133
697.1201 19908.81621
697.3140 20085.78119
697.5079 20314.43690
697.7017 20020.79914
697.8956 20075.58231
698.0894 20271.69579
698.2833 20396.70381
698.4771 20584.72782
698.6709 20858.11117
698.8647 20791.42930
699.0585 21012.44609
699.2522 20792.30993
699.4460 20838.75786
699.6397 20979.06420
699.8334 20861.71559
700.0271 21249.43703
700.2208 21430.88707
700.4144 21564.66038
700.6081 21643.03615
700.8017 21369.89856
700.9954 21682.35715
701.1890 21641.19298
701.3826 21628.31125
701.5761 21648.44279
701.7697 21778.22257
701.9632 21668.06233
702.1568 22153.79955
702.3503 22183.86374
702.5438 22243.62346
702.7373 21843.61421
702.9308 22473.77419
703.1242 22470.51792
703.3177 22547.09147
703.5111 22638.10320
703.7045 22650.41150
703.8979 23022.58886
704.0913 23265.51891
704.2847 23290.42221
704.4780 23271.97001
704.6713 22969.81270
704.8647 23119.47826
705.0580 23091.60540
705.2513 23062.46281
705.4445 23164.12398
705.6378 23282.16890
705.8311 22985.54110
706.0243 23124.96682
706.2175 23595.26236
706.4107 23659.91673
706.6039 24094.14755
706.7971 24144.56854
706.9902 24176.70117
707.1834 24302.77412
707.3765 24124.64180
707.5696 24018.78230
707.7627 24196.23879
707.9558 24150.77388
708.1489 24023.67694
708.3419 24019.70388
708.5349 24256.26475
708.7280 24266.60700
708.9210 24708.33337
709.1140 24804.30119
709.3069 24579.24990
709.4999 24431.16128
709.6929 24795.45397
709.8858 24590.26798
710.0787 24945.54960
710.2716 24684.02399
710.4645 25035.23015
710.6574 25035.51686
710.8502 25279.22514
711.0431 24956.81342
711.2359 25103.98046
711.4287 25026.56724
711.6215 25222.14825
711.8143 25235.37813
712.0071 25193.82485
712.1998 25557.68745
712.3925 25471.30413
712.5853 25776.22620
712.7780 25836.98943
712.9707 25820.46233
713.1633 25913.70634
713.3560 26163.04654
713.5487 26018.60330
713.7413 26239.59961
713.9339 26396.12586
714.1265 26399.75077
714.3191 26412.63249
714.5117 26161.42864
714.7042 26573.95099
714.8968 26799.94434
715.0893 27297.10923
715.2818 27166.10067
715.4743 27286.39836
715.6668 26958.17040
715.8592 26976.15157
716.0517 27032.18400
716.2441 27255.41259
716.4366 27080.27030
716.6290 27376.14035
716.8214 27470.85890
717.0137 27509.27880
717.2061 27605.77908
717.3984 27628.90065
717.5908 27460.92625
717.7831 27526.29742
717.9754 27818.60400
718.1677 27311.38358
718.3600 27638.11651
718.5522 27665.21114
718.7445 27749.42361
718.9367 27653.00524
719.1289 27866.38311
719.3211 27655.07369
719.5133 27719.27751
719.7054 27793.10678
719.8976 28123.97662
720.0897 28028.88943
720.2818 28306.04104
720.4740 28462.81305
720.6660 28327.95430
720.8581 28390.35591
721.0502 28468.95695
721.2422 28602.99651
721.4343 28749.50819
721.6263 28867.20495
721.8183 28995.20300
722.0103 29044.25185
722.2022 28843.26420
722.3942 29192.68863
722.5861 28845.41457
722.7781 29240.01719
722.9700 29354.60104
723.1619 29183.77996
723.3538 29003.92735
723.5456 28881.84793
723.7375 29261.35702
723.9293 29337.09090
724.1211 29133.01082
724.3129 28974.84619
724.5047 28994.46573
724.6965 29301.66105
724.8883 29409.69140
725.0800 29709.90314
725.2718 29503.36549
725.4635 29635.99194
725.6552 29498.36844
725.8469 29859.79397
726.0385 30187.55089
726.2302 29998.35953
726.4218 29496.70959
726.6135 29706.74926
726.8051 29574.71672
726.9967 29731.83688
727.1882 30027.80933
727.3798 30461.87630
727.5714 30247.39253
727.7629 30377.95054
727.9544 30410.10365
728.1459 30215.48518
728.3374 30249.27667
728.5289 30654.77448
728.7204 30292.55025
728.9118 30731.86002
729.1032 31006.36975
729.2946 31082.22652
729.4860 30375.94353
729.6774 30613.07783
729.8688 30731.16371
730.0602 30701.59104
730.2515 30678.32612
730.4428 30904.13515
730.6341 30744.55743
730.8254 30581.72343
731.0167 31184.74783
731.2080 30889.75841
731.3992 31065.33077
731.5905 31208.09468
731.7817 31106.92502
731.9729 30853.18169
732.1641 31154.08974
732.3553 31006.73839
732.5464 31504.96823
732.7376 31548.73332
732.9287 31549.12243
733.1198 31443.48820
733.3109 31517.70659
733.5020 31501.77339
733.6931 31631.43030
733.8841 31498.18945
734.0752 31707.36898
734.2662 31559.60803
734.4572 31463.12822
734.6482 31156.93642
734.8392 31184.11296
735.0302 31191.19893
735.2211 31485.96307
735.4120 31450.32842
735.6030 31788.55046
735.7939 31688.48670
735.9848 31744.88776
736.1756 31679.98763
736.3665 31547.50454
736.5574 31383.81039
736.7482 31773.29309
736.9390 31640.72807
737.1298 31959.53537
737.3206 31869.21995
737.5114 32111.20793
737.7021 31952.18316
737.8929 31960.17024
738.0836 31880.64761
738.2743 32114.05461
738.4650 31968.01396
738.6557 31628.62458
738.8463 31679.63948
739.0370 31685.90626
739.2276 31517.13316
739.4182 31415.49247
739.6088 31869.62954
739.7994 31551.66191
739.9900 31735.95862
740.1806 31847.30668
740.3711 32026.58587
740.5617 32166.03206
740.7522 32053.70097
740.9427 31917.12194
741.1332 31995.70250
741.3236 32025.00893
741.5141 32172.85179
741.7045 32467.86169
741.8949 32565.57028
742.0854 32110.16347
742.2758 32616.58518
742.4661 32231.15746
742.6565 32153.68281
742.8469 32258.82552
743.0372 32257.28955
743.2275 31773.25213
743.4178 32044.40319
743.6081 32228.33127
743.7984 32068.03675
743.9886 32132.15865
744.1789 32098.28525
744.3691 31962.97596
744.5593 32111.76089
744.7495 31931.96971
744.9397 32057.81739
745.1299 31974.32170
745.3200 31678.65645
745.5102 31951.44589
745.7003 32071.23158
745.8904 32091.89559
746.0805 32295.54560
746.2706 32197.85749
746.4607 32503.76258
746.6507 32574.08983
746.8408 32203.38701
747.0308 32437.69511
747.2208 32061.99525
747.4108 32231.46466
747.6007 31975.87816
747.7907 32524.79522
747.9806 32486.39581
748.1706 32435.87242
748.3605 32545.29539
748.5504 32443.42942
748.7403 32670.69252
748.9302 32357.64001
749.1200 32375.55974
749.3098 32546.70849
749.4997 32269.12680
749.6895 32235.19196
749.8793 32287.94764
750.0691 32814.02985
750.2588 32722.15797
750.4486 32505.48288
750.6383 32540.85130
750.8280 32071.23158
751.0177 32036.08844
751.2074 32090.72825
751.3971 32088.20925
751.5868 32240.18901
751.7764 31879.93082
751.9660 31727.39811
752.1557 32004.63164
752.3453 32668.21448
752.5348 32563.01032
752.7244 32569.33854
752.9140 32556.27250
753.1035 32702.12884
753.2930 32571.22268
753.4825 32514.33010
753.6720 32250.79748
753.8615 32447.32057
754.0510 32388.97394
754.2404 32402.53149
754.4299 32614.51673
754.6193 32497.74156
754.8087 32369.12912
754.9981 32426.45176
755.1875 32166.25733
755.3768 32019.60229
755.5662 32327.96495
755.7555 32336.15682
755.9448 32755.10979
756.1341 32488.21850
756.3234 32051.65300
756.5127 32300.91128
756.7019 32427.18903
756.8912 32548.10111
757.0804 32485.74046
757.2696 32356.06308
757.4588 32179.36433
757.6480 31927.91473
757.8371 31868.99467
758.0263 31789.45156
758.2154 31526.24662
758.4045 31307.64644
758.5936 31246.08450
758.7827 31744.06858
758.9718 32018.61927
759.1609 31888.12270
759.3499 31724.36712
759.5389 31127.79382
759.7280 31278.34000
759.9170 31614.94415
760.1059 31721.23372
760.2949 31703.84647
760.4839 31670.91513
760.6728 31823.46833
760.8617 31737.74035
761.0506 31325.40232
761.2395 31348.01190
761.4284 31285.89701
761.6173 31220.42345
761.8061 31347.43847
761.9950 31349.13828
762.1838 31334.94586
762.3726 31571.67057
762.5614 31094.37097
762.7502 31646.79006
762.9389 31270.66012
763.1277 31152.08273
763.3164 31463.02583
763.5051 31449.83691
763.6938 31609.66039
763.8825 31472.89703
764.0712 31914.62341
764.2598 31624.73344
764.4484 31959.63777
764.6371 31967.66580
764.8257 31624.42624
765.0143 31921.79130
765.2029 31730.83870
765.3914 32070.76055
765.5800 32259.07128
765.7685 31831.53732
765.9570 31636.52974
766.1455 31423.13139
766.3340 31327.65509
766.5225 31373.14048
766.7110 31274.34646
766.8994 31187.16443
767.0878 31102.21469
767.2762 31231.64632
767.4646 31086.91636
767.6530 31202.40132
767.8414 31397.16315
768.0298 31195.37679
768.2181 31363.80174
768.4064 31310.26784
768.5947 31166.47995
768.7830 30885.96967
768.9713 30940.54804
769.1596 30736.09932
769.3478 30701.05857
769.5360 30767.12604
769.7243 30516.24987
769.9125 30237.62372
770.1007 30159.18652
770.2888 30157.58910
770.4770 30039.66706
770.6651 30096.58012
770.8533 29869.56278
771.0414 29845.78586
771.2295 29952.32120
771.4176 30309.89654
771.6056 30501.81169
771.7937 30179.09278
771.9817 29856.33290
772.1698 30285.97627
772.3578 30196.11140
772.5458 30044.56171
772.7337 29771.62891
772.9217 29889.77623
773.1096 29869.64470
773.2976 30085.07053
773.4855 30335.45519
773.6734 29956.54001
773.8613 30145.73137
774.0492 29883.77568
774.2370 29928.17565
774.4249 30365.96993
774.6127 30560.99799
774.8005 30421.57228
774.9883 30274.09805
775.1761 30394.72341
775.3639 29978.63760
775.5516 30178.66270
775.7394 29826.88311
775.9271 29709.84170
776.1148 29635.86907
776.3025 28927.10804
776.4902 29289.68043
776.6778 29205.16076
776.8655 29514.42452
777.0531 29910.89079
777.2407 29693.39651
777.4283 29240.63158
777.6159 29657.86425
777.8035 29472.76883
777.9911 29061.57767
778.1786 29560.31950
778.3661 29378.31652
778.5536 29435.61868
778.7411 29811.33903
778.9286 30053.71613
779.1161 29691.36902
779.3036 29093.73078
779.4910 29151.81117
779.6784 29122.34090
779.8658 29335.18629
780.0532 29075.27858
780.2406 29220.52052
780.4280 28705.27207
780.6153 29061.24999
780.8026 29132.06875
780.9900 29137.76211
781.1773 28848.28172
781.3646 29129.71359
781.5518 28832.28709
781.7391 29168.82979
781.9263 28779.65429
782.1136 28622.10405
782.3008 28448.47726
782.4880 28613.27731
782.6752 28585.30206
782.8623 28603.34466
783.0495 28742.97517
783.2366 28311.20192
783.4237 28461.44091
783.6108 28792.22882
783.7979 28575.38989
783.9850 28610.81975
784.1721 28910.47853
784.3591 28515.36392
784.5462 28541.63936
784.7332 28602.30020
784.9202 28600.82566
785.1072 28365.39117
785.2941 28403.81107
785.4811 28112.75375
785.6681 28177.38764
785.8550 28305.77480
786.0419 28227.91103
786.2288 27922.10834
786.4157 27792.51287
786.6025 27958.52122
786.7894 28009.45420
786.9762 27959.21753
787.1631 27540.98135
787.3499 27960.54871
787.5367 28051.51948
787.7234 27683.78621
787.9102 27795.52339
788.0970 27770.76345
788.2837 28006.25937
788.4704 27596.01027
788.6571 27472.19008
788.8438 27570.92265
789.0305 27434.83513
789.2171 27317.52748
789.4038 27121.27064
789.5904 27182.66874
789.7770 27227.74453
789.9636 27140.64442
790.1502 27444.74730
790.3368 27355.45586
790.5233 27205.93366
790.7099 27087.35627
790.8964 26715.62947
791.0829 26367.35190
791.2694 26370.48529
791.4559 26355.20745
791.6423 26286.74385
791.8288 26421.72547
792.0152 26757.48995
792.2016 26734.26598
792.3880 26840.82180
792.5744 26486.95327
792.7608 26124.38089
792.9471 26361.08512
793.1335 26755.05286
793.3198 26448.39002
793.5061 26512.04089
793.6924 26054.03316
793.8787 26144.45098
794.0650 26070.90842
794.2512 26187.21257
794.4375 26443.88449
794.6237 26597.29783
794.8099 26517.73425
794.9961 25997.46826
795.1823 25995.25646
795.3684 26161.06001
795.5546 25882.72057
795.7407 25943.46333
795.9268 25485.02552
796.1129 25649.00638
796.2990 26124.19657
796.4851 26510.52540
796.6712 26140.94895
796.8572 25834.61379
797.0432 25671.59548
797.2292 25905.18679
797.4152 25787.14187
797.6012 25311.15298
797.7872 25253.68697
797.9731 25417.95455
798.1591 25178.73132
798.3450 25137.48523
798.5309 25502.84285
798.7168 25533.76718
798.9027 25537.61736
799.0885 25387.09166
799.2744 25252.29435
799.4602 25484.02202
799.6460 25439.68350
799.8318 25803.11603
800.0176 25480.99102
800.2034 25508.37237
800.3892 24975.47042
800.5749 24898.38487
800.7606 24994.47557
800.9463 25004.55157
801.1320 25035.04583
801.3177 25040.08383
801.5034 25126.59003
801.6890 25319.73397
801.8747 25022.36890
802.0603 24612.16076
802.2459 24602.92442
802.4315 24576.48515
802.6171 24321.16488
802.8026 24656.04873
802.9882 24800.79916
803.1737 24416.47735
803.3592 24615.33511
803.5447 24783.49383
803.7302 24784.66117
803.9157 24738.68427
804.1012 24804.32167
804.2866 24364.70470
804.4720 24524.01619
804.6574 24373.18329
804.8428 24152.20746
805.0282 24083.41619
805.2136 24165.35542
805.3989 24347.93183
805.5843 24066.72525
805.7696 23950.89213
805.9549 23869.52633
806.1402 23887.65086
806.3255 23631.18373
806.5107 23700.91707
806.6960 24049.13319
806.8812 23691.10730
807.0664 23805.83451
807.2516 23458.62188
807.4368 23326.48694
807.6220 23360.52418
807.8072 23377.25609
807.9923 23390.60884
808.1774 23371.84945
808.3625 23735.44582
808.5476 23664.85234
808.7327 23683.34550
808.9178 23406.11197
809.1028 23423.35586
809.2879 23289.41871
809.4729 23274.71429
809.6579 23103.68842
809.8429 23326.99893
810.0279 23293.47368
810.2128 23294.33383
810.3978 23238.83388
810.5827 23235.22945
810.7676 23409.53207
810.9525 23519.73327
811.1374 23282.78329
811.3223 23138.95444
811.5072 22739.47766
811.6920 22663.23178
811.8768 22946.62970
812.0616 22613.40470
812.2464 22821.37593
812.4312 22720.10387
812.6160 22679.57457
812.8007 22888.95890
812.9855 23098.67090
813.1702 22741.77138
813.3549 22661.57293
813.5396 22500.23395
813.7243 22359.37466
813.9089 22566.07614
814.0936 22623.37831
814.2782 22657.78418
814.4628 22629.15358
814.6474 22661.36813
814.8320 22479.36515
815.0166 22301.06899
815.2012 22537.50698
815.3857 22280.50738
815.5702 22281.85904
815.7547 22299.26677
815.9392 22245.56903
816.1237 22059.20388
816.3082 21670.86804
816.4926 21942.24438
816.6771 21990.59692
816.8615 21723.48036
817.0459 21953.65157
817.2303 21938.88571
817.4147 22077.41032
817.5990 22056.33672
817.7834 21900.71158
817.9677 21839.84595
818.1520 22061.86624
818.3363 21880.06805
818.5206 21615.73672
818.7049 21748.07647
818.8891 21749.26429
819.0734 21720.44937
819.2576 21656.59370
819.4418 21449.89222
819.6260 21492.38757
819.8102 21543.03383
819.9944 21348.55872
820.1785 21203.05054
820.3627 21421.44593
820.5468 21397.32086
820.7309 21230.96436
820.9150 21039.90935
821.0991 20876.74768
821.2831 21086.48016
821.4672 20898.33327
821.6512 20788.48023
821.8352 20869.66171
822.0192 21206.47065
822.2032 20939.37457
822.3872 21163.01275
822.5711 20945.06792
822.7551 20926.61572
822.9390 21095.28643
823.1229 21109.31501
823.3068 21103.10967
823.4907 20704.55447
823.6745 20841.89125
823.8584 20783.68798
824.0422 20717.86627
824.2261 20715.65446
824.4099 20870.41946
824.5937 21005.21676
824.7774 20865.17666
824.9612 20862.47334
825.1449 20738.10020
825.3287 20653.58053
825.5124 20583.25328
825.6961 20790.44628
825.8798 20748.34004
826.0634 20791.14259
826.2471 20557.42839
826.4307 20712.97162
826.6144 20704.88214
826.7980 20805.70365
826.9816 20546.20553
827.1652 20654.70691
827.3487 20549.83043
827.5323 20310.27953
827.7158 20179.59864
827.8993 20517.06293
828.0828 20450.07387
828.2663 20126.61769
828.4498 20281.34173
828.6333 20578.82967
828.8167 20406.34974
829.0001 20393.38610
829.1836 20459.35117
829.3670 20517.71828
829.5504 20729.78544
829.7337 20332.56142
829.9171 20315.76808
830.1004 20273.98952
830.2837 20171.65252
830.4671 20009.55579
830.6504 19771.31559
830.8336 19895.07434
831.0169 19890.99888
831.2002 20112.89630
831.3834 20080.68175
831.5666 20008.83900
831.7498 20106.42472
831.9330 20317.85701
832.1162 20215.64289
832.2993 20000.33993
832.4825 20037.20337
832.6656 19966.69181
832.8487 19806.11058
833.0318 19818.15263
833.2149 19686.16105
833.3980 19837.38306
833.5811 19918.58502
833.7641 19864.96920
833.9471 19775.00193
834.1301 19489.02358
834.3131 19284.41102
834.4961 19485.37819
834.6791 19536.76173
834.8620 19913.95661
835.0450 19821.20411
835.2279 19949.05880
835.4108 19783.84916
835.5937 19956.59532
835.7766 19558.55212
835.9594 19634.71607
836.1423 19612.29082
836.3251 20043.57255
836.5079 19961.10085
836.6907 19551.32279
836.8735 19444.35738
837.0563 19533.79217
837.2390 19487.50808
837.4218 19266.71657
837.6045 19508.86839
837.7872 19677.84630
837.9699 19415.97253
838.1526 19217.48340
838.3352 19331.45286
838.5179 19412.10187
838.7005 19425.96662
838.8831 19477.82119
839.0658 19606.94562
839.2483 19791.59048
839.4309 19699.80052
839.6135 19716.83962
839.7960 19401.88251
839.9786 19517.51082
840.1611 19182.17642
840.3436 19310.29734
840.5261 19159.48492
840.7085 19089.85399
840.8910 18960.19709
841.0734 19035.21418
841.2559 19013.87435
841.4383 19134.72498
841.6207 19410.11534
841.8030 19107.60988
841.9854 19020.14113
842.1678 18953.74598
842.3501 18976.58084
842.5324 18864.14735
842.7147 19034.45643
842.8970 19267.39240
843.0793 19042.93502
843.2615 19021.67711
843.4438 19249.06308
843.6260 19237.20534
843.8082 19216.56181
843.9904 19197.61810
844.1726 18848.17320
844.3548 18683.10691
844.5369 18634.91821
844.7191 18739.85613
844.9012 18637.94920
845.0833 18708.64508
845.2654 19000.13248
845.4475 19110.90711
845.6296 18745.87716
845.8116 18646.67355
845.9936 18647.36986
846.1757 18516.72993
846.3577 18443.06450
846.5397 18455.43423
846.7216 18412.20161
846.9036 18427.35658
847.0855 18144.02010
847.2675 18359.65073
847.4494 18415.45788
847.6313 18577.49317
847.8132 18605.38650
847.9950 18505.24083
848.1769 18406.22154
848.3587 18598.19813
848.5406 18354.38745
848.7224 18374.45754
848.9042 18306.19875
849.0860 18446.54604
849.2677 18232.24659
849.4495 18072.05448
849.6312 18035.43680
849.8129 18269.33531
849.9946 18515.95170
850.1763 18377.95957
850.3580 18168.30901
850.5397 18060.07386
850.7213 17883.90759
850.9029 17911.84188
851.0845 17942.80717
851.2661 17929.96641
851.4477 17943.46252
851.6293 18009.32520
851.8109 17969.00069
851.9924 17995.70620
852.1739 18119.54687
852.3554 18040.65912
852.5369 18071.11241
852.7184 17686.89300
852.8999 17595.81983
853.0813 17612.34693
853.2628 17634.97699
853.4442 17755.60235
853.6256 17664.79541
853.8070 17676.22308
853.9883 17856.21905
854.1697 17780.05509
854.3510 17420.69802
854.5324 17474.94871
854.7137 17472.30683
854.8950 17513.12285
855.0763 17544.43629
855.2575 17533.47966
855.4388 17474.29336
855.6200 17522.68686
855.8013 17504.89001
855.9825 17324.25917
856.1637 17292.24942
856.3449 17305.58169
856.5260 17324.58684
856.7072 17229.33582
856.8883 17451.31515
857.0694 17308.87892
857.2505 17248.93488
857.4316 17220.11996
857.6127 17076.43447
857.7938 17198.14525
857.9748 17041.72140
858.1558 16969.24379
858.3368 16920.95268
858.5178 16867.09110
858.6988 17060.68559
858.8798 16987.90078
859.0607 17148.89160
859.2417 17135.12925
859.4226 17079.69074
859.6035 17061.93485
859.7844 17125.31948
859.9653 17025.00997
860.1462 16892.30160
860.3270 16949.91096
860.5078 16869.99922
860.6887 16925.13054
860.8695 16836.16678
861.0503 16715.93053
861.2310 16441.03169
861.4118 16424.40218
861.5925 16463.90750
861.7733 16480.76228
861.9540 16214.15771
862.1347 16095.53936
862.3154 16040.94051
862.4960 16209.01731
862.6767 16229.43555
862.8573 16252.72096
863.0380 16083.41538
863.2186 16132.17752
863.3992 15932.76680
863.5797 15973.09131
863.7603 16040.22372
863.9409 16090.52183
864.1214 16061.13348
864.3019 16023.20510
864.4824 15867.41612
864.6629 15795.10234
864.8434 15626.32924
865.0238 15742.83818
865.2043 15804.31820
865.3847 15558.48003
865.5651 15505.06901
865.7455 15634.41871
865.9259 15673.53492
866.1063 15519.01568
866.2866 15453.27588
866.4670 15393.06560
866.6473 15349.19811
866.8276 15362.38703
867.0079 15383.91118
867.1882 15212.76243
867.3684 15060.29115
867.5487 15116.54886
867.7289 15153.10510
867.9091 15152.01967
868.0893 14980.70709
868.2695 14718.30085
868.4497 14633.10535
868.6299 14721.72096
868.8100 14703.51452
868.9901 14715.82281
869.1703 14913.55419
869.3504 14943.90509
869.5304 14843.45222
869.7105 15027.15502
869.8906 14900.50863
870.0706 14692.06637
870.2506 14662.24795
870.4306 14671.03373
870.6106 14665.95477
870.7906 14873.51640
870.9706 14760.09990
871.1505 14662.71898
871.3305 14593.49764
871.5104 14510.67778
871.6903 14366.48030
871.8702 14493.84348
872.0500 14475.63704
872.2299 14423.65959
872.4097 14286.54808
872.5896 14306.35194
872.7694 14365.66111
872.9492 14338.85320
873.1290 13934.54321
873.3087 13964.32068
873.4885 14342.53955
873.6682 14310.38644
873.8480 14169.46571
874.0277 14145.48399
874.2074 13859.56708
874.3870 13901.96003
874.5667 13861.47169
874.7463 14072.67870
874.9260 13851.37520
875.1056 13824.85401
875.2852 13771.42250
875.4648 13824.09626
875.6444 13831.42799
875.8239 13931.96277
876.0035 13791.39020
876.1830 13685.24398
876.3625 13611.80382
876.5420 13604.98408
876.7215 13556.75442
876.9010 13442.84640
877.0804 13498.75594
877.2599 13344.99445
877.4393 13545.10147
877.6187 13578.46289
877.7981 13634.43387
877.9775 13506.74302
878.1568 13645.10379
878.3362 13469.71575
878.5155 13489.51960
878.6948 13242.00210
878.8741 13231.45506
879.0534 13212.65471
879.2327 13143.33097
879.4119 13175.23832
879.5912 13034.07183
879.7704 13230.41060
879.9496 13353.57544
880.1288 13301.76183
880.3080 13081.27751
880.4872 13144.45735
880.6663 13151.74812
880.8455 13092.04983
881.0246 13187.13702
881.2037 13138.47728
881.3828 13015.86539
881.5619 13031.61427
881.7409 13029.70966
881.9200 12953.62762
882.0990 13003.31134
882.2780 12901.89593
882.4570 12848.28011
882.6360 12925.98004
882.8150 12738.71378
882.9940 12704.28742
883.1729 12742.11341
883.3518 12933.92616
883.5308 12878.20093
883.7096 12886.96624
883.8885 12708.64960
884.0674 12628.22587
884.2463 12537.70565
884.4251 12621.44709
884.6039 12507.76434
884.7827 12596.05228
884.9615 12551.11984
885.1403 12438.09245
885.3191 12398.30041
885.4978 12280.86989
885.6765 12273.14904
885.8553 12357.97591
886.0340 12459.73948
886.2127 12389.16647
886.3913 12203.10851
886.5700 12049.30606
886.7486 11989.93545
886.9273 12043.55127
887.1059 11982.97235
887.2845 11885.03849
887.4630 11876.17078
887.6416 11945.00301
887.8202 12001.87510
887.9987 11995.77216
888.1772 11999.45850
888.3557 11953.46112
888.5342 11806.96992
888.7127 11982.76755
888.8912 12028.88781
889.0696 12040.02876
889.2481 11828.82174
889.4265 11691.83311
889.6049 11639.42559
889.7833 11583.74132
889.9616 11510.85412
890.1400 11536.39229
890.3183 11404.56454
890.4967 11502.58032
890.6750 11701.68384
890.8533 11550.56423
891.0316 11432.51931
891.2098 11290.82035
891.3881 11277.40616
891.5663 11198.31360
891.7445 11267.39159
891.9227 11270.11539
892.1009 11207.61138
892.2791 11275.44011
892.4573 11255.73865
892.6354 11175.25348
892.8136 11254.89898
892.9917 11231.61358
893.1698 11122.96883
893.3479 11211.78924
893.5259 11287.17497
893.7040 11104.61903
893.8820 11127.02381
894.0601 11015.77815
894.2381 11151.90663
894.4161 11227.14900
894.5941 11354.53266
894.7720 11286.08955
894.9500 11240.17409
895.1279 11283.34527
895.3058 11101.56756
895.4838 11055.79546
895.6616 10951.67673
895.8395 10934.10516
896.0174 10953.17175
896.1952 11033.20636
896.3731 11102.10003
896.5509 11020.77519
896.7287 10944.18116
896.9065 10903.28323
897.0842 11034.29179
897.2620 10942.70662
897.4397 10814.93385
897.6175 10854.74637
897.7952 10954.66676
897.9729 10986.34884
898.1506 10874.93934
898.3282 10765.88500
898.5059 10770.39053
898.6835 10820.23809
898.8611 10812.70157
899.0388 10607.67942
899.2163 10472.32916
899.3939 10437.24746
899.5715 10655.62237
899.7490 10640.63123
899.9266 10490.43321
900.1041 10560.35086
900.2816 10612.61502
900.4591 10556.56212
900.6365 10634.58973
900.8140 10511.09721
900.9914 10501.12360
901.1689 10497.43726
901.3463 10573.74458
901.5237 10592.66781
901.7011 10428.89175
901.8784 10418.03751
902.0558 10289.52747
902.2331 10333.59976
902.4104 10416.01002
902.5878 10390.16466
902.7650 10332.10474
902.9423 10305.76786
903.1196 10396.82055
903.2968 10461.45445
903.4741 10396.47240
903.6513 10283.91604
903.8285 10192.45375
904.0057 10302.69591
904.1828 10182.39823
904.3600 10060.38025
904.5371 10070.29242
904.7143 10083.48134
904.8914 10105.47652
905.0685 10192.31040
905.2456 10155.13976
905.4226 10125.81285
905.5997 10224.15631
905.7767 10301.07802
905.9537 10162.73773
906.1307 10106.29571
906.3077 10057.16494
906.4847 10040.80167
906.6617 9964.47387
906.8386 10097.34608
907.0156 9975.75818
907.1925 9932.64844
907.3694 9955.46281
907.5463 9944.83385
907.7231 9942.47869
907.9000 9962.34398
908.0768 9883.78390
908.2537 9784.66222
908.4305 9725.14824
908.6073 9790.72420
908.7841 9839.46586
908.9608 9730.69824
909.1376 9695.10454
909.3143 9758.73493
909.4910 9735.63384
909.6677 9763.62958
909.8444 9725.23016
910.0211 9725.27112
910.1978 9683.02153
910.3744 9732.60285
910.5510 9773.56222
910.7277 9787.46793
910.9043 9609.39705
911.0808 9583.57216
911.2574 9582.83490
911.4340 9576.24044
911.6105 9420.98393
911.7870 9463.19256
911.9636 9544.16925
912.1401 9468.51728
912.3165 9504.86873
912.4930 9423.25717
912.6695 9374.00352
912.8459 9364.37807
913.0223 9363.25169
913.1987 9333.45374
913.3751 9337.61112
913.5515 9319.93715
913.7279 9374.92511
913.9042 9293.94842
914.0805 9185.99999
914.2568 9176.88653
914.4331 9156.48876
914.6094 9165.00831
914.7857 9210.18650
914.9620 9233.84054
915.1382 9125.09340
915.3144 9069.38865
915.4906 9176.86605
915.6668 9237.75216
915.8430 9146.26940
916.0192 8951.95812
916.1953 8995.43650
916.3715 9033.67207
916.5476 8965.51568
916.7237 9086.98070
916.8998 9026.60658
917.0759 8878.43604
917.2519 8843.76393
917.4280 8994.59683
917.6040 8885.35818
917.7800 8906.04266
917.9560 8839.13552
918.1320 8858.50931
918.3080 8909.58565
918.4839 8845.19751
918.6599 8838.52113
918.8358 8800.12172
919.0117 8820.78572
919.1876 8775.81233
919.3635 8744.56033
919.5394 8837.18995
919.7152 8821.91211
919.8911 8783.47173
920.0669 8753.28467
920.2427 8568.59885
920.4185 8552.39942
920.5942 8576.52449
920.7700 8505.27566
920.9458 8612.13867
921.1215 8642.46908
921.2972 8613.92040
921.4729 8581.03002
921.6486 8440.00689
921.8243 8263.39007
921.9999 8309.40793
922.1756 8304.32896
922.3512 8342.21639
922.5268 8296.09613
922.7024 8418.31890
922.8780 8429.95137
923.0535 8400.19438
923.2291 8314.15921
923.4046 8380.30860
923.5801 8492.43489
923.7557 8433.04380
923.9311 8380.10381
924.1066 8313.79058
924.2821 8379.24366
924.4575 8399.45711
924.6330 8344.32579
924.8084 8239.51075
924.9838 8167.77041
925.1592 8178.48128
925.3345 8149.50253
925.5099 8085.50350
925.6852 8072.47842
925.8606 8107.27341
926.0359 7995.55672
926.2112 7963.77224
926.3864 7940.81451
926.5617 7843.39264
926.7370 7828.77014
926.9122 7814.76203
927.0874 7805.09562
927.2626 7798.03013
927.4378 7777.32517
927.6130 7794.54858
927.7882 7774.64233
927.9633 7688.38188
928.1384 7653.46402
928.3135 7607.67143
928.4886 7539.06448
928.6637 7586.74119
928.8388 7626.51275
929.0139 7598.00502
929.1889 7575.66168
929.3639 7566.22055
929.5389 7574.02331
929.7139 7564.31594
929.8889 7567.49029
930.0639 7555.87830
930.2388 7464.88705
930.4138 7438.91881
930.5887 7414.22031
930.7636 7405.41404
930.9385 7397.73416
931.1134 7339.92000
931.2882 7349.25874
931.4631 7258.28797
931.6379 7214.48191
931.8127 7157.17975
931.9875 7157.52790
932.1623 7177.31128
932.3371 7155.66425
932.5118 7105.44806
932.6866 7086.79106
932.8613 7117.92019
933.0360 7102.47850
933.2107 7095.92500
933.3854 7035.32561
933.5600 7035.67376
933.7347 6905.11575
933.9093 6956.08970
934.0839 6996.14797
934.2586 7037.88557
934.4331 6964.81404
934.6077 6914.53641
934.7823 6844.02485
934.9568 6922.54397
935.1314 6859.20030
935.3059 6863.89014
935.4804 6741.64689
935.6549 6769.99078
935.8293 6786.92748
936.0038 6762.02418
936.1782 6768.29096
936.3526 6777.79354
936.5271 6691.24638
936.7015 6642.23849
936.8758 6656.06227
937.0502 6587.53724
937.2246 6587.90588
937.3989 6679.32720
937.5732 6597.18317
937.7475 6554.93358
937.9218 6520.20003
938.0961 6501.85023
938.2703 6479.89600
938.4446 6428.77870
938.6188 6454.99270
938.7930 6442.62297
938.9672 6418.00639
939.1414 6491.69230
939.3156 6403.09717
939.4897 6359.76216
939.6639 6307.57991
939.8380 6282.10318
940.0121 6271.06463
940.1862 6277.98676
940.3603 6269.65153
940.5344 6313.06847
940.7084 6313.23231
940.8824 6296.74616
941.0565 6267.62404
941.2305 6192.85270
941.4045 6118.34760
941.5784 6089.83988
941.7524 6116.68875
941.9263 6183.84164
942.1003 6161.17063
942.2742 6146.30237
942.4481 6067.68085
942.6220 6100.28452
942.7958 6061.31167
942.9697 6069.70834
943.1435 6013.51208
943.3174 6040.09471
943.4912 5963.84884
943.6650 5958.13500
943.8387 5877.52695
944.0125 5872.07936
944.1863 5924.24112
944.3600 5946.27727
944.5337 5957.62301
944.7074 6004.78773
944.8811 5942.67284
945.0548 5899.52214
945.2284 5838.34931
945.4021 5828.51906
945.5757 5881.66385
945.7493 5818.83217
945.9229 5671.56274
946.0965 5597.36483
946.2701 5597.11907
946.4436 5644.30427
946.6172 5647.10999
946.7907 5636.91111
946.9642 5636.03048
947.1377 5635.23177
947.3112 5598.85985
947.4847 5613.83050
947.6581 5629.10835
947.8315 5641.19136
948.0050 5552.55527
948.1784 5507.56140
948.3518 5533.14053
948.5251 5525.19441
948.6985 5615.93991
948.8718 5556.69217
949.0452 5424.65962
949.2185 5414.09211
949.3918 5400.43215
949.5651 5450.87362
949.7383 5419.00723
949.9116 5403.74986
950.0848 5434.63323
950.2581 5454.68285
950.4313 5476.53467
950.6045 5508.64682
950.7776 5508.31915
950.9508 5407.08805
951.1239 5398.15891
951.2971 5272.96658
951.4702 5308.06876
951.6433 5321.09385
951.8164 5266.00349
951.9895 5279.11049
952.1625 5234.30093
952.3356 5266.98651
952.5086 5218.36773
952.6816 5231.08562
952.8546 5191.29359
953.0276 5145.60340
953.2006 5149.41262
953.3735 5157.87074
953.5465 5174.47976
953.7194 5209.45907
953.8923 5148.94159
954.0652 5150.74380
954.2381 5096.47263
954.4109 5077.32412
954.5838 5046.68651
954.7566 5066.30605
954.9294 5007.77511
955.1022 4991.20704
955.2750 5017.23672
955.4478 4982.38029
955.6206 5025.14188
955.7933 5039.39574
955.9660 4996.92087
956.1388 5050.08614
956.3115 5018.38358
956.4841 4935.93236
956.6568 4905.78626
956.8295 4919.71245
957.0021 4902.87815
957.1747 4886.92447
957.3473 4867.53021
957.5199 4818.87047
957.6925 4834.53743
957.8651 4824.01087
958.0376 4813.81199
958.2102 4790.26035
958.3827 4851.00310
958.5552 4875.59920
958.7277 4813.75055
958.9001 4778.40261
959.0726 4735.78438
959.2450 4699.57629
959.4175 4727.61298
959.5899 4693.10471
959.7623 4656.75326
959.9347 4598.71383
960.1070 4590.46051
960.2794 4597.36217
960.4517 4582.63727
960.6241 4599.86069
960.7964 4595.74427
960.9687 4627.46731
961.1409 4624.14960
961.3132 4575.36698
961.4855 4571.49632
961.6577 4532.66684
961.8299 4526.66629
962.0021 4498.50672
962.1743 4489.02462
962.3465 4442.18758
962.5186 4417.09996
962.6908 4428.15899
962.8629 4416.34221
963.0350 4377.00073
963.2071 4382.03873
963.3792 4410.97653
963.5513 4400.26566
963.7233 4450.46137
963.8954 4442.24902
964.0674 4431.41526
964.2394 4393.87599
964.4114 4356.07049
964.5834 4351.93359
964.7553 4337.45445
964.9273 4341.87807
965.0992 4332.78509
965.2711 4370.44723
965.4430 4338.53988
965.6149 4315.29543
965.7868 4304.44120
965.9587 4289.36815
966.1305 4303.39673
966.3023 4278.37056
966.4741 4268.80654
966.6459 4275.66724
966.8177 4272.39049
966.9895 4278.06336
967.1613 4282.79417
967.3330 4270.21964
967.5047 4229.40362
967.6764 4220.69976
967.8481 4194.81343
968.0198 4181.60403
968.1915 4143.14318
968.3631 4111.03103
968.5347 4121.49615
968.7064 4122.54061
968.8780 4109.92513
969.0496 4098.70226
969.2211 4084.98087
969.3927 4090.94046
969.5642 4035.62482
969.7358 4017.29550
969.9073 3999.25290
970.0788 4051.88569
970.2503 4058.68495
970.4217 4061.67498
970.5932 4030.56634
970.7646 4035.89106
970.9360 4047.40064
971.1074 4072.16058
971.2788 4077.36242
971.4502 4036.95600
971.6216 4001.38278
971.7929 3954.19758
971.9643 3971.78963
972.1356 3998.02411
972.3069 3989.56600
972.4782 3972.36307
972.6494 3940.43523
972.8207 3944.12158
972.9919 3925.13691
973.1632 3883.74746
973.3344 3887.76148
973.5056 3837.62720
973.6768 3822.14456
973.8479 3862.98105
974.0191 3892.77900
974.1902 3890.83343
974.3614 3869.65743
974.5325 3865.66389
974.7036 3834.53477
974.8746 3831.05322
975.0457 3823.12758
975.2167 3801.15288
975.3878 3763.34737
975.5588 3744.64942
975.7298 3726.91401
975.9008 3704.89835
976.0718 3709.17860
976.2427 3713.13118
976.4137 3696.60407
976.5846 3707.49927
976.7555 3674.69081
976.9264 3688.30980
977.0973 3686.28231
977.2682 3706.88488
977.4390 3718.33302
977.6098 3731.56290
977.7807 3711.47233
977.9515 3710.61218
978.1223 3715.34299
978.2930 3688.88323
978.4638 3655.74710
978.6346 3613.35414
978.8053 3569.11802
978.9760 3579.35786
979.1467 3548.63833
979.3174 3555.56047
979.4881 3566.10750
979.6587 3567.84828
979.8294 3557.15788
980.0000 3539.19720
980.1706 3514.19150
980.3412 3510.87379
980.5118 3535.63373
980.6824 3535.24462
980.8529 3541.10181
981.0235 3536.12524
981.1940 3518.38983
981.3645 3474.66570
981.5350 3495.67786
981.7055 3476.79559
981.8759 3469.34098
982.0464 3454.12457
982.2168 3443.49562
982.3872 3470.75408
982.5576 3453.48970
982.7280 3434.91463
982.8984 3437.65890
983.0687 3446.85428
983.2391 3447.75539
983.4094 3428.87312
983.5797 3419.16575
983.7500 3395.10211
983.9203 3368.47852
984.0906 3378.63645
984.2608 3339.17209
984.4311 3354.22466
984.6013 3325.67597
984.7715 3381.29880
984.9417 3379.82427
985.1119 3362.80565
985.2820 3295.63227
985.4522 3294.85404
985.6223 3312.56897
985.7924 3317.38170
985.9625 3336.50973
986.1326 3344.37393
986.3027 3314.63742
986.4727 3330.75494
986.6428 3312.99905
986.8128 3301.16179
986.9828 3270.38082
987.1528 3246.84966
987.3228 3240.39855
987.4928 3252.97308
987.6627 3268.76292
987.8327 3236.58933
988.0026 3236.89653
988.1725 3259.60850
988.3424 3229.68768
988.5123 3238.37107
988.6821 3228.25410
988.8520 3210.45725
989.0218 3178.93901
989.1916 3163.62021
989.3614 3130.58647
989.5312 3149.93978
989.7010 3139.55657
989.8707 3162.37095
990.0405 3147.27742
990.2102 3164.45987
990.3799 3156.37040
990.5496 3125.60991
990.7193 3105.29406
990.8890 3102.61122
991.0586 3092.06418
991.2283 3106.78907
991.3979 3118.40106
991.5675 3123.86913
991.7371 3117.06988
991.9067 3089.23798
992.0762 3068.10294
992.2458 3086.71898
992.4153 3098.53576
992.5848 3104.41343
992.7543 3096.32395
992.9238 3060.99649
993.0933 3066.85368
993.2627 3053.48045
993.4322 3043.30204
993.6016 3050.46993
993.7710 3014.05705
993.9404 3012.91019
994.1098 2998.88160
994.2792 3005.18934
994.4485 3003.85816
994.6179 3009.83823
994.7872 3001.38012
994.9565 3008.32274
995.1258 3028.33139
995.2951 3005.92661
995.4643 3012.17292
995.6336 3019.03361
995.8028 3003.28473
995.9720 2966.15506
996.1412 2977.37793
996.3104 2987.14674
996.4796 2996.40356
996.6487 2983.15320
996.8179 2981.82202
996.9870 2971.54122
997.1561 2952.39271
997.3252 2945.26578
997.4943 2934.90306
997.6634 2928.63627
997.8324 2940.71929
998.0014 2919.21562
998.1705 2910.61415
998.3395 2891.24036
998.5085 2859.72212
998.6774 2869.47045
998.8464 2858.43190
999.0153 2864.59629
999.1843 2880.95956
999.3532 2864.55533
999.5221 2851.63265
999.6910 2851.89888
999.8599 2874.30366
1000.0287 2889.52007
1000.1976 2889.47911
1000.3664 2899.22744
1000.5352 2896.56508
1000.7040 2900.78390
1000.8728 2875.55292
1001.0415 2843.62509
1001.2103 2822.57197
1001.3790 2810.65279
1001.5478 2787.26499
1001.7165 2787.01923
1001.8851 2777.57810
1002.0538 2791.60668
1002.2225 2795.70262
1002.3911 2784.95078
1002.5598 2774.89526
1002.7284 2772.06906
1002.8970 2758.47055
1003.0656 2761.07147
1003.2341 2726.03072
1003.4027 2731.96983
1003.5712 2694.02097
1003.7398 2708.25435
1003.9083 2708.52059
1004.0768 2687.59035
1004.2453 2674.27855
1004.4137 2716.63055
1004.5822 2698.17835
1004.7506 2725.96928
1004.9190 2686.85308
1005.0874 2685.46046
1005.2558 2687.36507
1005.4242 2686.50493
1005.5926 2690.66230
1005.7609 2686.81212
1005.9292 2669.09719
1006.0976 2701.49606
1006.2659 2686.21821
1006.4342 2712.39125
1006.6024 2685.00991
1006.7707 2683.61729
1006.9389 2678.02634
1007.1071 2683.90401
1007.2754 2675.40494
1007.4436 2667.54074
1007.6117 2654.53613
1007.7799 2652.07857
1007.9481 2650.54260
1008.1162 2663.11712
1008.2843 2646.36474
1008.4524 2634.81420
1008.6205 2629.48948
1008.7886 2637.68135
1008.9566 2622.60830
1009.1247 2614.70314
1009.2927 2594.69449
1009.4607 2599.13858
1009.6287 2576.89764
1009.7967 2588.91922
1009.9647 2567.57938
1010.1327 2543.70007
1010.3006 2530.49067
1010.4685 2511.77223
1010.6364 2535.26243
1010.8043 2539.50173
1010.9722 2516.78976
1011.1401 2505.60785
1011.3079 2502.22870
1011.4758 2525.14547
1011.6436 2506.85711
1011.8114 2516.93311
1011.9792 2523.34326
1012.1470 2548.04176
1012.3147 2533.68550
1012.4825 2528.17646
1012.6502 2540.11612
1012.8179 2523.34326
1012.9856 2498.89051
1013.1533 2503.02741
1013.3210 2462.37523
1013.4886 2468.17098
1013.6563 2461.63796
1013.8239 2465.95917
1013.9915 2473.08610
1014.1591 2461.41268
1014.3267 2470.64902
1014.4942 2481.58517
1014.6618 2460.28630
1014.8293 2477.05916
1014.9969 2464.03408
1015.1644 2501.67575
1015.3319 2482.58868
1015.4993 2452.23778
1015.6668 2442.61233
1015.8342 2435.97691
1016.0017 2424.13965
1016.1691 2447.97801
1016.3365 2434.95293
1016.5039 2435.48540
1016.6712 2434.99388
1016.8386 2435.81307
1017.0059 2424.32397
1017.1733 2430.34500
1017.3406 2411.62656
1017.5079 2419.96179
1017.6752 2405.50313
1017.8424 2401.87823
1018.0097 2397.16790
1018.1769 2407.65350
1018.3441 2383.36459
1018.5113 2379.00242
1018.6785 2368.33250
1018.8457 2380.66127
1019.0129 2369.35649
1019.1800 2393.89115
1019.3471 2389.13986
1019.5142 2379.43249
1019.6813 2382.54540
1019.8484 2371.36350
1020.0155 2368.66018
1020.1826 2366.96036
1020.3496 2348.67200
1020.5166 2326.30818
1020.6836 2326.75874
1020.8506 2327.39361
1021.0176 2312.27960
1021.1846 2326.04195
1021.3515 2315.47443
1021.5185 2330.73180
1021.6854 2325.91907
1021.8523 2326.53346
1022.0192 2340.82828
1022.1861 2330.21980
1022.3529 2302.18311
1022.5198 2316.94897
1022.6866 2316.02738
1022.8534 2328.21279
1023.0202 2302.30599
1023.1870 2307.22111
1023.3538 2280.74088
1023.5205 2302.32647
1023.6873 2298.96780
1023.8540 2287.15102
1024.0207 2275.58000
1024.1874 2288.99419
1024.3541 2273.51155
1024.5207 2282.50213
1024.6874 2267.12189
1024.8540 2281.88774
1025.0206 2259.93352
1025.1872 2271.25878
1025.3538 2260.38407
1025.5204 2269.90712
1025.6870 2249.48888
1025.8535 2249.81655
1026.0201 2247.13371
1026.1866 2245.84349
1026.3531 2228.57911
1026.5196 2230.85236
1026.6860 2238.26601
1026.8525 2244.65567
1027.0189 2216.59850
1027.1853 2233.02321
1027.3518 2225.36380
1027.5181 2234.68206
1027.6845 2231.15955
1027.8509 2219.07654
1028.0172 2199.27268
1028.1836 2191.03985
1028.3499 2191.08081
1028.5162 2197.69575
1028.6825 2180.22657
1028.8488 2178.38340
1029.0150 2183.50332
1029.1813 2170.86735
1029.3475 2155.20039
1029.5137 2174.16458
1029.6799 2166.79190
1029.8461 2166.77142
1030.0123 2155.85574
1030.1784 2166.30038
1030.3446 2164.94873
1030.5107 2160.40223
1030.6768 2152.94763
1030.8429 2156.79781
1031.0090 2153.05003
1031.1750 2156.36774
1031.3411 2150.67438
1031.5071 2145.71830
1031.6732 2136.76867
1031.8392 2143.03546
1032.0051 2136.99395
1032.1711 2131.81259
1032.3371 2110.65707
1032.5030 2123.27256
1032.6690 2121.14267
1032.8349 2133.73768
1033.0008 2111.74250
1033.1667 2114.75301
1033.3325 2099.61852
1033.4984 2108.21999
1033.6642 2113.62663
1033.8300 2125.21813
1033.9959 2100.41723
1034.1616 2101.03162
1034.3274 2105.08660
1034.4932 2109.65357
1034.6589 2091.50857
1034.8247 2089.99307
1034.9904 2091.97960
1035.1561 2089.44012
1035.3218 2076.74271
1035.4875 2085.89713
1035.6531 2066.35951
1035.8188 2084.97555
1035.9844 2059.08922
1036.1500 2078.11485
1036.3156 2052.10565
1036.4812 2059.08922
1036.6468 2058.00380
1036.8123 2053.98978
1036.9779 2053.74402
1037.1434 2064.14770
1037.3089 2068.65323
1037.4744 2060.09273
1037.6399 2053.47779
1037.8053 2052.35140
1037.9708 2034.45216
1038.1362 2055.07520
1038.3016 2045.75694
1038.4670 2058.24955
1038.6324 2045.18351
1038.7978 2015.05789
1038.9632 2030.64293
1039.1285 2028.22633
1039.2938 2008.21768
1039.4592 2021.71379
1039.6245 2016.59387
1039.7897 2025.07246
1039.9550 2012.39553
1040.1203 2016.81915
1040.2855 2009.18022
1040.4507 2025.93261
1040.6159 2020.79220
1040.7811 2006.57930
1040.9463 2019.07191
1041.1115 2003.34351
1041.2766 1997.30200
1041.4418 1986.18153
1041.6069 1965.02602
1041.7720 1976.78136
1041.9371 1970.14594
1042.1021 1973.27933
1042.2672 1964.39115
1042.4323 1983.41677
1042.5973 1976.43320
1042.7623 1968.07749
1042.9273 1968.63044
1043.0923 1974.34427
1043.2572 1955.74872
1043.4222 1946.75813
1043.5871 1940.38895
1043.7521 1959.61938
1043.9170 1971.49760
1044.0819 1962.87565
1044.2467 1951.81662
1044.4116 1944.09578
1044.5765 1941.35150
1044.7413 1941.53581
1044.9061 1938.32050
1045.0709 1941.33102
1045.2357 1933.36442
1045.4005 1921.77292
1045.5652 1913.00761
1045.7300 1911.45115
1045.8947 1917.18547
1046.0594 1913.90872
1046.2241 1895.94803
1046.3888 1908.25632
1046.5535 1908.48160
1046.7181 1915.77237
1046.8828 1912.63897
1047.0474 1892.65080
1047.2120 1893.81814
1047.3766 1898.61039
1047.5412 1885.99490
1047.7057 1888.26815
1047.8703 1891.31962
1048.0348 1890.11132
1048.1993 1883.27110
1048.3639 1883.12775
1048.5283 1870.32794
1048.6928 1874.58772
1048.8573 1870.02075
1049.0217 1865.06466
1049.1861 1851.03607
1049.3506 1877.92590
1049.5150 1857.17998
1049.6793 1862.87333
1049.8437 1856.21744
1050.0081 1861.39880
1050.1724 1842.65988
1050.3367 1850.93368
1050.5010 1836.51598
1050.6653 1841.26726
1050.8296 1830.20823
1050.9939 1844.46210
1051.1581 1830.69975
1051.3224 1836.67981
1051.4866 1828.20122
1051.6508 1829.30713
1051.8150 1823.24514
1051.9791 1816.26157
1052.1433 1806.65659
1052.3074 1805.75549
1052.4716 1803.52320
1052.6357 1800.02117
1052.7998 1794.57358
1052.9639 1805.53021
1053.1279 1797.21546
1053.2920 1798.52616
1053.4560 1792.42321
1053.6201 1803.11361
1053.7841 1796.84682
1053.9481 1789.55605
1054.1120 1790.96915
1054.2760 1782.12193
1054.4399 1793.44719
1054.6039 1780.66787
1054.7678 1780.03300
1054.9317 1773.37710
1055.0956 1773.78669
1055.2595 1769.75220
1055.4233 1764.57083
1055.5872 1755.64169
1055.7510 1757.30055
1055.9148 1753.04077
1056.0786 1755.68265
1056.2424 1763.85405
1056.4062 1735.63304
1056.5699 1745.68856
1056.7336 1739.31938
1056.8974 1738.09060
1057.0611 1723.52954
1057.2248 1730.24688
1057.3885 1723.26330
1057.5521 1733.38027
1057.7158 1719.14689
1057.8794 1721.87069
1058.0430 1723.87770
1058.2066 1721.29725
1058.3702 1708.27217
1058.5338 1723.44762
1058.6973 1707.08435
1058.8609 1717.50851
1059.0244 1696.61923
1059.1879 1717.67235
1059.3514 1692.01130
1059.5149 1707.35059
1059.6784 1702.53786
1059.8418 1683.57367
1060.0053 1685.51924
1060.1687 1692.07274
1060.3321 1682.54969
1060.4955 1684.41334
1060.6589 1680.15356
1060.8222 1688.57071
1060.9856 1674.52165
1061.1489 1678.10559
1061.3122 1679.82589
1061.4755 1688.42736
1061.6388 1671.79785
1061.8021 1679.12958
1061.9654 1667.84527
1062.1286 1668.66446
1062.2918 1663.68789
1062.4550 1657.03200
1062.6182 1653.87812
1062.7814 1657.03200
1062.9446 1650.25322
1063.1077 1645.66577
1063.2709 1630.83847
1063.4340 1643.65876
1063.5971 1635.22113
1063.7602 1636.98238
1063.9233 1624.69457
1064.0863 1640.32057
1064.2494 1632.10822
1064.4124 1635.54880
1064.5754 1616.40030
1064.7384 1635.24161
1064.9014 1623.99826
1065.0644 1629.54825
1065.2274 1619.82040
1065.3903 1616.33886
1065.5532 1606.73388
1065.7162 1615.97022
1065.8790 1600.18038
1066.0419 1610.99366
1066.2048 1606.54957
1066.3677 1599.62743
1066.5305 1599.36120
1066.6933 1598.95160
1066.8561 1588.32264
1067.0189 1597.92762
1067.1817 1575.78907
1067.3445 1584.26767
1067.5072 1573.92542
1067.6699 1576.91546
1067.8327 1572.02081
1067.9954 1577.95992
1068.1580 1571.32450
1068.3207 1558.79093
1068.4834 1556.41529
1068.6460 1573.57727
1068.8086 1555.47322
1068.9713 1554.63356
1069.1339 1547.81382
1069.2964 1548.61253
1069.4590 1555.75994
1069.6216 1550.72194
1069.7841 1538.74132
1069.9466 1542.14095
1070.1091 1533.78524
1070.2716 1533.74428
1070.4341 1531.51199
1070.5966 1545.86825
1070.7590 1528.82915
1070.9214 1528.62435
1071.0839 1522.39853
1071.2463 1531.59391
1071.4086 1508.94337
1071.5710 1515.88599
1071.7334 1510.23360
1071.8957 1519.18322
1072.0580 1501.50925
1072.2204 1507.98083
1072.3827 1501.36589
1072.5449 1493.31737
1072.7072 1486.70243
1072.8695 1494.83287
1073.0317 1491.37180
1073.1939 1481.70539
1073.3561 1486.19044
1073.5183 1493.70649
1073.6805 1481.09100
1073.8427 1473.92311
1074.0048 1471.46555
1074.1669 1478.20336
1074.3291 1464.42053
1074.4912 1483.83528
1074.6532 1461.51242
1074.8153 1462.59784
1074.9774 1459.34157
1075.1394 1460.65227
1075.3014 1450.37147
1075.4635 1464.31814
1075.6255 1447.40191
1075.7874 1459.97644
1075.9494 1434.06964
1076.1114 1449.92092
1076.2733 1440.41834
1076.4352 1448.18014
1076.5971 1426.12352
1076.7590 1435.89233
1076.9209 1418.40268
1077.0828 1432.39030
1077.2446 1428.74492
1077.4064 1431.96023
1077.5683 1408.47003
1077.7301 1415.69936
1077.8918 1405.82815
1078.0536 1418.87371
1078.2154 1413.79475
1078.3771 1411.19383
1078.5388 1410.04696
1078.7006 1403.61634
1078.8623 1396.22318
1079.0239 1404.98848
1079.1856 1395.85454
1079.3473 1409.14586
1079.5089 1391.45141
1079.6705 1394.66672
1079.8321 1392.61875
1079.9937 1395.40399
1080.1553 1376.11212
1080.3169 1388.64569
1080.4784 1372.36434
1080.6399 1386.76156
1080.8014 1371.97522
1080.9629 1376.72651
1081.1244 1382.13315
1081.2859 1372.81489
1081.4474 1363.61951
1081.6088 1363.27136
1081.7702 1359.35974
1081.9316 1367.49017
1082.0930 1359.46214
1082.2544 1361.44867
1082.4158 1354.66989
1082.5771 1352.86768
1082.7385 1350.18484
1082.8998 1354.26030
1083.0611 1345.98650
1083.2224 1342.95551
1083.3837 1349.61141
1083.5449 1343.56990
1083.7062 1330.36050
1083.8674 1337.11880
1084.0286 1320.38689
1084.1898 1336.09481
1084.3510 1320.71457
1084.5122 1327.00183
1084.6734 1314.73450
1084.8345 1323.13117
1084.9956 1304.35130
1085.1567 1314.20203
1085.3178 1310.16753
1085.4789 1318.01125
1085.6400 1301.11551
1085.8010 1310.04465
1085.9621 1303.26587
1086.1231 1305.00665
1086.2841 1284.95703
1086.4451 1303.53211
1086.6061 1289.60592
1086.7670 1292.82123
1086.9280 1290.24079
1087.0889 1296.09798
1087.2498 1288.80721
1087.4107 1295.38119
1087.5716 1287.10740
1087.7325 1275.86405
1087.8933 1277.17475
1088.0542 1298.65794
1088.2150 1270.51885
1088.3758 1278.38305
1088.5366 1274.98343
1088.6974 1279.71423
1088.8582 1271.87051
1089.0189 1274.57383
1089.1796 1268.42992
1089.3404 1277.64578
1089.5011 1269.47439
1089.6618 1284.05593
1089.8224 1274.04136
1089.9831 1273.18121
1090.1438 1265.41941
1090.3044 1278.19874
1090.4650 1270.25262
1090.6256 1268.55280
1090.7862 1260.99580
1090.9468 1270.33454
1091.1073 1253.60263
1091.2679 1256.79746
1091.4284 1270.90797
1091.5889 1269.00336
1091.7494 1266.64819
1091.9099 1254.76997
1092.0703 1251.55466
1092.2308 1260.01277
1092.3912 1263.82200
1092.5516 1265.03030
1092.7121 1249.09710
1092.8724 1259.50078
1093.0328 1245.28788
1093.1932 1260.64764
1093.3535 1256.65410
1093.5139 1261.75355
1093.6742 1262.98233
1093.8345 1259.13215
1093.9948 1249.67053
1094.1550 1264.88694
1094.3153 1250.03917
1094.4755 1261.20060
1094.6358 1260.50429
1094.7960 1258.53824
1094.9562 1247.92976
1095.1163 1261.18012
1095.2765 1246.63954
1095.4367 1250.67404
1095.5968 1254.15558
1095.7569 1264.86646
1095.9170 1253.02920
1096.0771 1265.52181
1096.2372 1250.75595
1096.3973 1259.45982
1096.5573 1253.19304
1096.7173 1261.42587
1096.8773 1251.00171
1097.0374 1261.46683
1097.1973 1248.78990
1097.3573 1254.48326
1097.5173 1252.23049
1097.6772 1254.79045
1097.8371 1253.68455
1097.9970 1249.65005
1098.1569 1256.65410
1098.3168 1254.81093
1098.4767 1246.37330
1098.6365 1258.21056
1098.7964 1266.09524
1098.9562 1261.99930
1099.1160 1250.77643
1099.2758 1258.00576
1099.4356 1244.18198
1099.5953 1261.73307
1099.7551 1251.22699
1099.9148 1263.45336
1100.0745 1246.25042
1100.2342 1254.31942
1100.3939 1242.93271
1100.5536 1258.62015
1100.7132 1248.93326
1100.8729 1256.73602
1101.0325 1253.50023
1101.1921 1249.87533
1101.3517 1249.28142
1101.5113 1256.44931
1101.6709 1241.92921
1101.8304 1258.12864
1101.9899 1244.71445
1102.1495 1250.40780
1102.3090 1250.32588
1102.4685 1256.16259
1102.6279 1249.34286
1102.7874 1251.12459
1102.9468 1250.94027
1103.1063 1249.75245
1103.2657 1244.30485
1103.4251 1252.39433
1103.5845 1247.19249
1103.7438 1261.46683
1103.9032 1248.78990
1104.0625 1261.07772
1104.2219 1247.09009
1104.3812 1255.36388
1104.5405 1245.02164
1104.6997 1259.00927
1104.8590 1252.45577
1105.0183 1249.46573
1105.1775 1243.19895
1105.3367 1246.47570
1105.4959 1247.64304
1105.6551 1260.50429
1105.8143 1238.65246
1105.9735 1254.97477
1106.1326 1246.10707
1106.2917 1255.81444
1106.4508 1249.62957
1106.6099 1255.17957
1106.7690 1238.61150
1106.9281 1260.99580
1107.0872 1245.10356
1107.2462 1261.13916
1107.4052 1252.41481
1107.5642 1250.53068
1107.7232 1244.30485
1107.8822 1259.72606
1108.0412 1240.74139
1108.2001 1254.76997
1108.3591 1248.46223
1108.5180 1254.46278
1108.6769 1249.15854
1108.8358 1254.09414
1108.9947 1246.08659
1109.1535 1258.35392
1109.3124 1245.18548
1109.4712 1253.13160
1109.6300 1247.62256
1109.7888 1257.16610
1109.9476 1244.28437
1110.1064 1258.31296
1110.2651 1251.94378
1110.4239 1255.67108
1110.5826 1245.57459
1110.7413 1253.04968
1110.9000 1248.81038
1111.0587 1254.85189
1111.2173 1245.41076
1111.3760 1254.62662
1111.5346 1255.79396
1111.6932 1252.98824
1111.8518 1248.09360
1112.0104 1257.94432
1112.1690 1240.39323
1112.3276 1258.47680
1112.4861 1250.96075
1112.6446 1246.86481
1112.8032 1256.20355
1112.9617 1251.63658
1113.1201 1257.18658
1113.2786 1263.35096
1113.4371 1250.14156
1113.5955 1247.76592
1113.7539 1245.63603
1113.9123 1251.53418
1114.0707 1256.63363
1114.2291 1259.45982
1114.3875 1251.37035
1114.5458 1258.70207
1114.7042 1250.51020
1114.8625 1251.69802
1115.0208 1245.65651
1115.1791 1250.65356
1115.3374 1243.64950
1115.4956 1255.58916
1115.6539 1246.45522
1115.8121 1247.11057
1115.9703 1253.39783
1116.1285 1258.72255
1116.2867 1248.13455
1116.4449 1253.13160
1116.6030 1250.91979
1116.7612 1260.46333
1116.9193 1241.08954
1117.0774 1246.35282
1117.2355 1245.16500
1117.3936 1257.78049
1117.5516 1248.72847
1117.7097 1250.91979
1117.8677 1242.15449
1118.0257 1252.04617
1118.1837 1251.22699
1118.3417 1258.72255
1118.4997 1257.94432
1118.6577 1241.08954
1118.8156 1254.15558
1118.9735 1252.33289
1119.1315 1248.15503
1119.2894 1267.22162
1119.4472 1250.71500
1119.6051 1256.10115
1119.7630 1234.26981
1119.9208 1246.92625
1120.0786 1242.27736
1120.2364 1254.70853
1120.3942 1242.33880
1120.5520 1247.58160
1120.7098 1252.18953
1120.8675 1256.55171
1121.0253 1243.60854
1121.1830 1257.51425
1121.3407 1248.97422
1121.4984 1249.34286
1121.6560 1252.43529
