# Averages = 100
# wavelength [µm]	intensity
446.8250 14.33578
447.0374 36746.70328
447.2498 1228.45357
447.4621 1229.23180
447.6745 1233.20486
447.8868 1241.17146
448.0992 1241.43770
448.3115 1236.46113
448.5238 1247.19249
448.7360 1240.04508
448.9483 1247.72496
449.1606 1239.63548
449.3728 1264.35447
449.5850 1234.59748
449.7972 1237.46464
450.0094 1234.00357
450.2216 1253.19304
450.4337 1254.50374
450.6459 1668.68494
450.8580 1993.82046
451.0701 2015.83612
451.2822 2040.59606
451.4943 2037.66747
451.7064 2014.38206
451.9184 2013.84959
452.1305 2076.51743
452.3425 2177.64613
452.5545 2103.36630
452.7665 2090.19787
452.9785 2212.42064
453.1905 2238.08169
453.4024 2171.50222
453.6143 2263.96801
453.8263 2248.52633
454.0382 2365.91590
454.2501 2220.51012
454.4619 2210.00404
454.6738 2343.16297
454.8856 2402.18543
455.0975 2251.59828
455.3093 2259.42152
455.5211 2333.70135
455.7329 2305.76706
455.9446 2325.40708
456.1564 2342.17994
456.3681 2404.29483
456.5798 2459.67191
456.7916 2399.76882
457.0033 2396.84023
457.2149 2362.76203
457.4266 2386.96902
457.6382 2453.11841
457.8499 2411.64704
458.0615 2523.38422
458.2731 2437.61528
458.4847 2529.65100
458.6963 2544.23254
458.9078 2573.04746
459.1194 2713.29236
459.3309 2735.61522
459.5424 2590.47567
459.7539 2495.83904
459.9654 2548.49231
460.1769 2591.19246
460.3883 2593.93674
460.5998 2449.65734
460.8112 2435.23964
461.0226 2517.99806
461.2340 2620.68321
461.4454 2549.78253
461.6567 2503.21172
461.8681 2499.70970
462.0794 2462.62098
462.2907 2577.51203
462.5020 2641.59297
462.7133 2750.77019
462.9246 2802.13324
463.1359 2659.18502
463.3471 2419.85940
463.5583 2485.33296
463.7696 2812.35261
463.9808 2670.61269
464.1919 2574.60391
464.4031 2574.76775
464.6143 2719.02667
464.8254 2561.74267
465.0365 2533.58310
465.2476 2643.08799
465.4587 2689.18777
465.6698 2534.91428
465.8809 2506.07888
466.0919 2527.29584
466.3030 2683.26914
466.5140 2650.48116
466.7250 2554.32902
466.9360 2595.41128
467.1469 2551.62570
467.3579 2448.94055
467.5688 2450.64037
467.7798 2545.25652
467.9907 2717.28590
468.2016 2542.12313
468.4125 2531.86281
468.6233 2441.32211
468.8342 2451.39811
469.0450 2712.06358
469.2559 2701.08646
469.4667 2679.13224
469.6775 2470.11655
469.8882 2498.31708
470.0990 2561.29212
470.3098 2701.29126
470.5205 2576.44709
470.7312 2701.45510
470.9419 2806.80261
471.1526 2644.97212
471.3633 2525.10451
471.5739 2569.79119
471.7846 2561.08732
471.9952 2388.40260
472.2058 2451.09092
472.4164 2430.28356
472.6270 2489.81801
472.8376 2522.60599
473.0481 2668.79000
473.2587 2699.98056
473.4692 2647.40920
473.6797 2571.77772
473.8902 2504.56338
474.1007 2435.17820
474.3111 2415.84538
474.5216 2374.92696
474.7320 2484.12465
474.9424 2612.83949
475.1528 2673.97136
475.3632 2507.28718
475.5736 2496.26911
475.7840 2456.10844
475.9943 2473.37282
476.2046 2516.56448
476.4149 2532.72295
476.6252 2630.59538
476.8355 2756.66834
477.0458 2766.08899
477.2561 2791.70908
477.4663 2683.74017
477.6765 2629.71475
477.8867 2585.80630
478.0969 2593.52715
478.3071 2605.81496
478.5173 2560.45245
478.7274 2630.82066
478.9375 2784.33639
479.1477 2767.48161
479.3578 2773.95319
479.5679 2865.49740
479.7779 2716.89678
479.9880 2665.96380
480.1980 2747.86207
480.4081 2814.95353
480.6181 2763.26280
480.8281 2651.34130
481.0381 2771.94618
481.2480 2814.46201
481.4580 2739.62924
481.6679 2740.87850
481.8778 2689.33112
482.0877 2753.41207
482.2976 2790.35742
482.5075 2827.34374
482.7174 2809.07586
482.9272 2798.24210
483.1371 2747.37056
483.3469 2762.60745
483.5567 2854.29501
483.7665 2858.51382
483.9762 2873.01344
484.1860 2831.35776
484.3957 2873.81215
484.6055 2820.11441
484.8152 2861.34002
485.0249 2907.86987
485.2346 2879.62838
485.4442 2895.58206
485.6539 2958.67997
485.8635 2957.26687
486.0732 2883.35568
486.2828 2932.34310
486.4924 2920.48536
486.7019 2922.02133
486.9115 2953.23238
487.1210 2974.46981
487.3306 2993.39304
487.5401 3035.92935
487.7496 3031.66958
487.9591 3116.35309
488.1686 3093.53872
488.3780 3055.50794
488.5875 3076.62249
488.7969 3091.10163
489.0063 3076.15146
489.2157 3130.07448
489.4251 3112.21619
489.6345 3140.45768
489.8438 3129.05049
490.0531 3125.89662
490.2625 3160.87593
490.4718 3123.84865
490.6811 3185.59491
490.8903 3231.01886
491.0996 3238.55538
491.3089 3233.35354
491.5181 3271.40480
491.7273 3281.48081
491.9365 3267.41126
492.1457 3308.16584
492.3549 3320.63797
492.5640 3313.08097
492.7732 3347.95787
492.9823 3346.60621
493.1914 3410.23660
493.4005 3412.89896
493.6096 3399.75100
493.8187 3395.73698
494.0277 3450.13103
494.2368 3462.00925
494.4458 3494.98155
494.6548 3536.98539
494.8638 3554.76176
495.0728 3511.48818
495.2817 3551.58741
495.4907 3516.64906
495.6996 3587.85693
495.9085 3591.35896
496.1174 3638.62608
496.3263 3626.21539
496.5352 3683.66091
496.7440 3676.24726
496.9529 3709.93635
497.1617 3730.14980
497.3705 3711.90240
497.5793 3779.71065
497.7881 3756.50716
497.9969 3804.53203
498.2056 3826.22002
498.4144 3861.50652
498.6231 3879.03713
498.8318 3893.39339
499.0405 3924.70683
499.2492 3892.96332
499.4578 3965.09278
499.6665 3968.08281
499.8751 4038.02094
500.0837 4039.63884
500.2923 4046.86817
500.5009 4045.45507
500.7095 4108.32771
500.9180 4118.54708
501.1266 4166.77674
501.3351 4171.56899
501.5436 4224.59090
501.7521 4212.97891
501.9606 4264.66965
502.1691 4275.46244
502.3775 4302.51611
502.5860 4329.26258
502.7944 4327.58325
503.0028 4405.38558
503.2112 4436.61710
503.4196 4413.65937
503.6279 4518.78161
503.8363 4462.48295
504.0446 4563.55020
504.2529 4571.76256
504.4612 4615.28190
504.6695 4630.76454
504.8778 4637.25660
505.0860 4679.01468
505.2943 4677.17151
505.5025 4776.78471
505.7107 4776.08840
505.9189 4849.65144
506.1271 4877.21710
506.3353 4892.61782
506.5434 4885.73665
506.7516 4953.09434
506.9597 4960.69230
507.1678 4995.15962
507.3759 5043.73744
507.5840 5031.44963
507.7920 5096.37023
508.0001 5083.83667
508.2081 5213.49357
508.4161 5173.08714
508.6241 5245.38044
508.8321 5227.64503
509.0401 5305.14017
509.2480 5325.08738
509.4560 5317.57134
509.6639 5396.93013
509.8718 5438.95445
510.0797 5453.12639
510.2876 5436.88600
510.4955 5604.57368
510.7033 5632.42605
510.9112 5686.65627
511.1190 5696.85515
511.3268 5682.68321
511.5346 5769.14845
511.7424 5793.17112
511.9501 5859.46387
512.1579 5893.66495
512.3656 5936.05790
512.5733 5913.30497
512.7810 6046.54582
512.9887 6063.38012
513.1964 6126.31420
513.4040 6146.46621
513.6117 6187.71230
513.8193 6213.41431
514.0269 6272.41629
514.2345 6338.25848
514.4421 6362.11732
514.6497 6405.63666
514.8572 6466.15413
515.0647 6461.48476
515.2723 6549.67030
515.4798 6576.27341
515.6873 6699.37681
515.8947 6663.94695
516.1022 6698.00468
516.3097 6736.75224
516.5171 6841.09625
516.7245 6837.43039
516.9319 6917.62884
517.1393 6965.48987
517.3467 7027.21565
517.5540 7063.25990
517.7614 7129.55265
517.9687 7101.41356
518.1760 7178.33527
518.3833 7226.76973
518.5906 7264.30899
518.7978 7399.43397
519.0051 7370.04562
519.2123 7496.09810
519.4196 7413.44208
519.6268 7528.70176
519.8340 7583.25965
520.0411 7661.55349
520.2483 7744.61910
520.4554 7756.23109
520.6626 7838.92807
520.8697 7861.51716
521.0768 8000.67664
521.2839 8018.71924
521.4909 8051.54818
521.6980 8224.08955
521.9050 8247.62071
522.1121 8316.37102
522.3191 8355.42578
522.5261 8407.23939
522.7331 8487.39689
522.9400 8629.95600
523.1470 8628.17426
523.3539 8680.00835
523.5608 8725.30942
523.7677 8765.59297
523.9746 8859.63569
524.1815 8941.20629
524.3884 9001.12985
524.5952 8974.54722
524.8020 9156.30444
525.0089 9093.08365
525.2157 9225.62819
525.4225 9241.37707
525.6292 9277.23700
525.8360 9333.10559
526.0427 9441.42265
526.2494 9515.94824
526.4562 9618.10092
526.6629 9568.72439
526.8695 9636.00016
527.0762 9802.21331
527.2829 9783.22864
527.4895 10009.40631
527.6961 10048.58395
527.9027 10107.58593
528.1093 10120.57005
528.3159 10175.98808
528.5224 10217.60281
528.7290 10451.52180
528.9355 10383.91835
529.1420 10599.61042
529.3485 10502.47526
529.5550 10683.70002
529.7615 10655.25373
529.9680 10821.87647
530.1744 10862.52865
530.3808 10945.28707
530.5872 10891.07733
530.7936 11006.45989
531.0000 11078.26168
531.2064 11135.83008
531.4127 11181.25402
531.6191 11307.53178
531.8254 11310.54229
532.0317 11428.15714
532.2380 11420.10862
532.4443 11606.98577
532.6505 11434.66968
532.8568 11684.58330
533.0630 11821.18282
533.2692 11794.80498
533.4754 11896.62999
533.6816 12068.02449
533.8878 12039.84444
534.0939 12185.12735
534.3001 12187.64635
534.5062 12239.66475
534.7123 12292.05180
534.9184 12311.01599
535.1245 12325.31081
535.3306 12416.77309
535.5366 12535.02281
535.7426 12653.17012
535.9487 12815.45117
536.1547 12656.28304
536.3607 12782.06928
536.5666 12767.46726
536.7726 12877.95518
536.9785 12966.75510
537.1845 13156.84756
537.3904 13054.49008
537.5963 13175.09496
537.8022 13225.67979
538.0080 13349.80718
538.2139 13381.85789
538.4197 13508.70907
538.6256 13506.04671
538.8314 13589.31712
539.0372 13586.77764
539.2430 13800.19646
539.4487 13544.42565
539.6545 13868.74198
539.8602 13788.52304
540.0659 13885.43292
540.2716 14112.67553
540.4773 14080.72722
540.6830 14306.20858
540.8887 14284.00860
541.0943 14213.55848
541.2999 14205.98099
541.5056 14269.07891
541.7112 14367.31997
541.9167 14327.40506
542.1223 14494.74458
542.3279 14491.05824
542.5334 14535.66300
542.7389 14737.12169
542.9444 14811.27863
543.1499 14842.18248
543.3554 14803.51683
543.5609 14904.46121
543.7663 15050.50186
543.9718 14860.98284
544.1772 15084.62102
544.3826 15000.32663
544.5880 15233.63123
544.7934 15216.10062
544.9987 15247.39358
545.2041 15509.24686
545.4094 15319.72784
545.6147 15408.93735
545.8200 15573.86028
546.0253 15549.24369
546.2306 15650.06520
546.4358 15543.87802
546.6411 15714.37141
546.8463 15667.88252
547.0515 15865.67535
547.2567 15850.15174
547.4619 15933.64743
547.6670 16007.10807
547.8722 15979.23521
548.0773 16210.14369
548.2824 16068.28089
548.4876 16044.44254
548.6926 16210.04129
548.8977 16326.01776
549.1028 16400.42047
549.3078 16357.98655
549.5129 16380.92380
549.7179 16385.08118
549.9229 16421.00255
550.1279 16358.53950
550.3328 16419.77377
550.5378 16232.93758
550.7427 16414.38761
550.9476 16424.36122
551.1526 16187.10404
551.3575 16455.32651
551.5623 16383.03321
551.7672 16242.76783
551.9720 16331.60872
552.1769 16298.86170
552.3817 16447.64662
552.5865 16233.34718
552.7913 16291.61189
552.9961 16201.39886
553.2008 16248.35879
553.4056 16396.89796
553.6103 16285.93901
553.8150 16428.21140
554.0197 16443.26397
554.2244 16305.90671
554.4291 16170.26974
554.6337 16328.14765
554.8384 16272.21762
555.0430 16219.25715
555.2476 16117.61646
555.4522 16009.48371
555.6568 16054.49806
555.8613 16061.50212
556.0659 16155.68820
556.2704 15936.59650
556.4750 15994.86121
556.6795 16008.68500
556.8839 15815.21340
557.0884 15927.89264
557.2929 15864.97904
557.4973 15763.70698
557.7018 15717.09521
557.9062 15639.47720
558.1106 15601.56930
558.3150 15521.61660
558.5193 15595.40491
558.7237 15492.39208
558.9280 15343.89387
559.1323 15253.72180
559.3367 15209.34232
559.5410 15163.83645
559.7452 14895.77782
559.9495 15097.23651
560.1537 15009.01002
560.3580 14921.09072
560.5622 14984.27055
560.7664 14920.76304
560.9706 14792.84692
561.1748 14801.30503
561.3789 14771.83476
561.5831 14674.35144
561.7872 14618.56478
561.9913 14609.65611
562.1954 14434.28855
562.3995 14464.65992
562.6036 14352.18548
562.8076 14135.22367
563.0117 14259.80161
563.2157 14141.96149
563.4197 14167.23342
563.6237 14048.77891
563.8277 13868.29142
564.0316 13678.64952
564.2356 13742.81238
564.4395 13692.84194
564.6434 13567.21954
564.8473 13599.43409
565.0512 13474.03696
565.2551 13413.56044
565.4590 13400.16673
565.6628 13313.59909
565.8666 13258.26297
566.0705 13115.66291
566.2743 12982.74974
566.4780 12888.56365
566.6818 12828.74249
566.8856 12866.54799
567.0893 12655.60721
567.2930 12560.04899
567.4967 12443.15093
567.7004 12408.41738
567.9041 12400.92181
568.1078 12280.25550
568.3114 12183.79617
568.5151 12142.63200
568.7187 11823.08743
568.9223 11926.57129
569.1259 11834.67893
569.3295 11868.32706
569.5330 11738.81352
569.7366 11637.56194
569.9401 11595.04611
570.1436 11497.35800
570.3471 11539.23896
570.5506 11430.10271
570.7541 11260.73569
570.9575 11244.10619
571.1609 11069.53733
571.3644 11075.74267
571.5678 10964.76325
571.7712 10929.74298
571.9746 10827.40598
572.1779 10631.80449
572.3813 10532.08889
572.5846 10555.62005
572.7879 10465.18175
572.9912 10444.70206
573.1945 10342.36507
573.3978 10184.36428
573.6010 10132.91930
573.8043 10163.49547
574.0075 9901.94939
574.2107 9869.40716
574.4139 9721.68718
574.6171 9648.06270
574.8203 9455.75843
575.0234 9460.50972
575.2266 9266.15749
575.4297 9217.70255
575.6328 9131.68786
575.8359 9071.88717
576.0390 8822.17834
576.2420 8777.22543
576.4451 8603.23000
576.6481 8608.86192
576.8512 8651.84878
577.0542 8400.31726
577.2571 8413.62906
577.4601 8291.22196
577.6631 8143.76821
577.8660 8052.10113
578.0689 7910.44313
578.2719 7879.80552
578.4748 7814.45484
578.6776 7685.84240
578.8805 7652.11236
579.0834 7515.90195
579.2862 7506.09218
579.4890 7472.07542
579.6918 7430.50166
579.8946 7245.28336
580.0974 7237.68540
580.3002 7146.75559
580.5029 7006.42877
580.7057 7029.05882
580.9084 6864.01302
581.1111 6865.34420
581.3138 6761.79890
581.5164 6676.02997
581.7191 6604.26915
581.9217 6551.16532
582.1244 6486.38806
582.3270 6410.38794
582.5296 6406.04625
582.7322 6361.83060
582.9347 6298.85557
583.1373 6208.21247
583.3398 6185.52097
583.5424 6126.80571
583.7449 6081.56608
583.9474 6011.97610
584.1498 5943.00052
584.3523 5952.31877
584.5548 5868.31110
584.7572 5839.12754
584.9596 5835.13400
585.1620 5837.67348
585.3644 5724.25697
585.5668 5689.44150
585.7691 5724.99424
585.9715 5664.16957
586.1738 5665.07068
586.3761 5583.58200
586.5784 5636.99302
586.7807 5593.33033
586.9830 5562.71320
587.1852 5528.57356
587.3875 5502.11380
587.5897 5513.43907
587.7919 5491.11621
587.9941 5439.09780
588.1963 5443.60334
588.3984 5402.33677
588.6006 5363.38440
588.8027 5426.50280
589.0048 5391.62589
589.2069 5379.64527
589.4090 5414.11259
589.6111 5397.15540
589.8131 5409.77089
590.0152 5422.01775
590.2172 5367.43938
590.4192 5444.23821
590.6212 5396.25430
590.8232 5363.77351
591.0252 5419.70354
591.2271 5411.45023
591.4291 5467.23690
591.6310 5430.02530
591.8329 5452.96255
592.0348 5490.54278
592.2367 5493.53281
592.4385 5558.20767
592.6404 5623.08732
592.8422 5612.74508
593.0440 5650.67346
593.2458 5727.59516
593.4476 5719.17801
593.6494 5738.96139
593.8512 5822.23180
594.0529 5845.02569
594.2546 5885.92363
594.4563 5863.25261
594.6580 5877.58839
594.8597 5920.10423
595.0614 5982.83351
595.2630 6038.10818
595.4647 6094.50924
595.6663 6112.24465
595.8679 6205.95970
596.0695 6277.41333
596.2711 6295.49690
596.4727 6345.97933
596.6742 6466.44085
596.8757 6505.39321
597.0773 6574.63504
597.2788 6584.09665
597.4802 6660.07629
597.6817 6738.88213
597.8832 6764.54318
598.0846 6806.95661
598.2860 6869.25582
598.4875 6877.69345
598.6889 7024.53281
598.8902 7087.28258
599.0916 7184.43821
599.2930 7192.26145
599.4943 7322.30747
599.6956 7398.96294
599.8969 7459.52138
600.0982 7504.78148
600.2995 7531.32316
600.5008 7704.70419
600.7020 7755.10470
600.9032 7863.62657
601.1045 7957.79217
601.3057 7974.93367
601.5068 8135.20770
601.7080 8214.68937
601.9092 8203.73274
602.1103 8422.57868
602.3115 8503.06385
602.5126 8543.16308
602.7137 8608.65712
602.9147 8731.63764
603.1158 8858.46835
603.3169 8997.99646
603.5179 9137.56553
603.7189 9148.41976
603.9199 9283.91338
604.1209 9320.92017
604.3219 9465.56820
604.5229 9575.42125
604.7238 9657.17616
604.9247 9783.67919
605.1257 9901.58075
605.3266 9968.05782
605.5275 10070.92729
605.7283 10183.64749
605.9292 10361.10398
606.1300 10257.41532
606.3309 10421.86721
606.5317 10609.21539
606.7325 10793.59402
606.9332 10885.50686
607.1340 10986.08260
607.3348 11085.92108
607.5355 11126.36846
607.7362 11373.10774
607.9369 11341.48710
608.1376 11573.27620
608.3383 11695.21226
608.5390 11821.12138
608.7396 11897.69493
608.9402 12125.59290
609.1409 12211.75094
609.3415 12202.10501
609.5421 12362.52240
609.7426 12474.03430
609.9432 12592.75505
610.1437 12629.72088
610.3443 12974.27115
610.5448 13041.23972
610.7453 13198.74900
610.9457 13187.81285
611.1462 13333.79206
611.3467 13436.86633
611.5471 13678.60856
611.7475 13653.09087
611.9479 13988.13855
612.1483 13887.25561
612.3487 14250.05328
612.5491 14186.56625
612.7494 14640.84668
612.9497 14523.84622
613.1501 14721.41377
613.3504 14803.98787
613.5506 15155.13259
613.7509 15157.93830
613.9512 15131.72430
614.1514 15238.46444
614.3516 15599.74660
614.5519 15578.05861
614.7521 15824.85933
614.9522 15850.09030
615.1524 15933.87270
615.3526 16209.69314
615.5527 16515.53679
615.7528 16408.98098
615.9529 16526.12479
616.1530 16818.39041
616.3531 17103.59054
616.5532 17269.41457
616.7532 17140.43349
616.9532 17282.43965
617.1533 17255.22214
617.3533 17495.85847
617.5532 17594.48865
617.7532 17748.55733
617.9532 17720.23393
618.1531 18215.84236
618.3530 17971.37633
618.5530 18296.06130
618.7528 18477.28605
618.9527 18617.79719
619.1526 18636.29035
619.3524 18677.39308
619.5523 18829.39332
619.7521 18995.72934
619.9519 19203.82345
620.1517 19379.29341
620.3515 19596.95153
620.5512 19745.49070
620.7510 19748.31690
620.9507 19792.59398
621.1504 19791.59048
621.3501 20057.78546
621.5498 20336.30921
621.7495 20408.97114
621.9492 20576.04443
622.1488 20419.68202
622.3484 20611.04422
622.5480 20669.94380
622.7476 21216.52618
622.9472 20967.75941
623.1468 21032.00419
623.3463 21734.92851
623.5459 21808.90114
623.7454 21715.75952
623.9449 21922.33813
624.1444 22075.13707
624.3439 22337.39995
624.5433 22265.49577
624.7428 22437.52515
624.9422 22350.17928
625.1416 22522.18817
625.3410 22549.69239
625.5404 22887.46388
625.7398 22884.45337
625.9391 23080.21870
626.1385 22890.82255
626.3378 23073.74712
626.5371 23610.84740
626.7364 23283.86871
626.9357 23501.19915
627.1350 23610.29445
627.3342 23697.10785
627.5335 23681.87096
627.7327 23936.55635
627.9319 23995.80409
628.1311 24664.24061
628.3303 24291.71509
628.5294 24353.39991
628.7286 24671.26514
628.9277 24998.96062
629.1268 25039.51040
629.3259 25336.03580
629.5250 25400.11674
629.7241 25419.83868
629.9231 25059.15042
630.1222 25701.08623
630.3212 25737.15096
630.5202 25559.10055
630.7192 25858.96414
630.9182 25766.37547
631.1171 25920.52608
631.3161 25992.45074
631.5150 25793.55202
631.7140 26137.16021
631.9129 26421.95075
632.1118 26603.76941
632.3106 26583.08493
632.5095 26760.11135
632.7083 26582.85965
632.9072 26754.17224
633.1060 26902.40422
633.3048 26705.41010
633.5036 26810.12274
633.7023 27099.72600
633.9011 27513.94816
634.0998 27776.33392
634.2986 27505.69485
634.4973 27846.41541
634.6960 27709.91829
634.8947 27842.38091
635.0933 27873.57148
635.2920 28025.94035
635.4906 27863.57739
635.6892 28244.80677
635.8878 28418.49500
636.0864 28695.72853
636.2850 28369.60999
636.4836 28506.88533
636.6821 28482.90362
636.8806 28822.62068
637.0792 28984.30781
637.2777 29031.34965
637.4761 28941.66910
637.6746 29069.50331
637.8731 29564.66119
638.0715 29292.11751
638.2699 29551.16508
638.4683 29531.89369
638.6667 29395.45801
638.8651 29605.51817
639.0635 29810.33552
639.2618 29795.32391
639.4602 29938.78412
639.6585 29799.91136
639.8568 30177.74112
640.0551 30036.86135
640.2534 29978.02320
640.4516 30268.97812
640.6499 30378.11438
640.8481 30786.45887
641.0463 30823.21991
641.2445 31114.64586
641.4427 30834.81141
641.6409 30918.45045
641.8390 30975.03583
642.0372 31225.93248
642.2353 31137.86983
642.4334 31147.94583
642.6315 31324.89033
642.8296 31174.48751
643.0277 31052.79720
643.2257 31834.69119
643.4237 31737.74035
643.6218 31591.86354
643.8198 31708.96639
644.0178 31839.38104
644.2157 31693.19703
644.4137 31784.61836
644.6116 32643.02446
644.8096 32813.70217
645.0075 32168.59202
645.2054 32550.39483
645.4033 32374.26952
645.6011 32340.78523
645.7990 32343.87766
645.9968 32702.53843
646.1947 32745.44338
646.3925 33003.50792
646.5903 32706.01998
646.7881 33057.86101
646.9858 32814.72616
647.1836 32822.09885
647.3813 32626.66119
647.5790 32809.85199
647.7767 33595.35041
647.9744 33031.81085
648.1721 33235.54278
648.3698 33689.31121
648.5674 33251.78317
648.7650 33545.44141
648.9627 33348.83641
649.1603 34221.04582
649.3578 34064.82676
649.5554 34152.66414
649.7530 34364.89515
649.9505 33880.57102
650.1480 34247.66941
650.3455 34359.50899
650.5430 33866.21475
650.7405 34141.11360
650.9380 34237.57293
651.1354 34558.32579
651.3329 34448.59563
651.5303 34941.88986
651.7277 34863.32978
651.9251 34904.18676
652.1225 34657.54988
652.3198 34692.05815
652.5172 34966.62932
652.7145 35241.93776
652.9118 35286.23533
653.1091 35409.60496
653.3064 35390.92749
653.5037 35367.86736
653.7009 35036.19882
653.8982 35455.06987
654.0954 35903.49311
654.2926 35936.32205
654.4898 35887.88759
654.6870 35961.92166
654.8841 36339.62853
655.0813 36046.15461
655.2784 36448.66239
655.4755 36354.14863
655.6726 36587.08460
655.8697 36153.03810
656.0668 36589.93127
656.2639 36463.75592
656.4609 36355.62317
656.6579 36683.48249
656.8550 36752.08944
657.0520 36654.23749
657.2490 36119.22614
657.4459 36940.99408
657.6429 37026.33293
657.8398 36874.02550
658.0367 37253.02260
658.2337 37056.78623
658.4305 37273.01077
658.6274 37409.65125
658.8243 37350.54687
659.0211 37463.30803
659.2180 37436.11100
659.4148 37628.41527
659.6116 37687.00765
659.8084 37887.64715
660.0052 38000.10112
660.2019 37883.38738
660.3987 37725.55043
660.5954 38107.27132
660.7921 38166.99009
660.9888 37864.21839
661.1855 38129.90138
661.3822 38207.00740
661.5788 38253.49629
661.7755 38132.50230
661.9721 38143.49989
662.1687 38494.09166
662.3653 38288.80327
662.5619 38558.27500
662.7584 38402.99801
662.9550 38505.10973
663.1515 38769.58441
663.3480 38592.02552
663.5445 38948.18777
663.7410 38545.22944
663.9375 38933.97487
664.1340 38909.35828
664.3304 39069.75519
664.5268 38852.77290
664.7233 39411.45878
664.9197 39215.65249
665.1160 39422.39493
665.3124 39091.42270
665.5088 39383.07393
665.7051 39317.14982
665.9014 39141.45458
666.0977 39095.33432
666.2940 39129.90404
666.4903 39342.72895
666.6866 39587.80937
666.8828 39187.53388
667.0791 39529.44226
667.2753 39963.59115
667.4715 40021.67155
667.6677 40403.22861
667.8639 40390.85887
668.0600 39752.99853
668.2562 39924.18824
668.4523 39918.65872
668.6484 40287.17022
668.8445 39734.17770
669.0406 40559.20191
669.2367 40466.10125
669.4327 40776.10228
669.6287 40605.56792
669.8248 40377.73140
670.0208 40439.49813
670.2168 40311.27481
670.4128 40553.30376
670.6087 40520.86393
670.8047 40554.81925
671.0006 40938.17852
671.1965 40186.14392
671.3924 40552.19785
671.5883 40378.30483
671.7842 40774.32054
671.9801 40069.59402
672.1759 40613.18636
672.3717 40409.80259
672.5675 41461.08638
672.7633 40876.30939
672.9591 41409.62093
673.1549 41549.94775
673.3506 41427.80689
673.5464 41062.42879
673.7421 41306.87434
673.9378 41445.52182
674.1335 41080.81955
674.3292 41444.17016
674.5249 41090.48596
674.7205 40464.52431
674.9161 40940.30841
675.1118 40722.38406
675.3074 40718.67723
675.5030 40846.71624
675.6985 41245.74247
675.8941 41211.41851
676.0896 41255.65464
676.2852 41192.41336
676.4807 41063.86237
676.6762 41188.80894
676.8717 41622.34344
677.0671 41802.35990
677.2626 42023.52004
677.4580 41734.51069
677.6534 41692.71165
677.8489 41391.78312
678.0442 41434.13512
678.2396 41083.23615
678.4350 41500.46882
678.6303 41234.29432
678.8257 41459.32513
679.0210 41715.71034
679.2163 41538.62248
679.4116 41698.93747
679.6069 41347.56748
679.8021 40763.46631
679.9974 41223.05098
680.1926 41334.39904
680.3878 41282.52399
680.5830 41358.44219
680.7782 41364.09458
680.9734 41193.60119
681.1685 41207.67073
681.3636 41150.49144
681.5588 41535.57101
681.7539 41391.76264
681.9490 41335.21823
682.1441 41248.42531
682.3391 40948.60268
682.5342 41626.72610
682.7292 41799.73850
682.9242 42006.07135
683.1192 41762.73170
683.3142 41993.74258
683.5092 42136.15832
683.7041 42407.02267
683.8991 42028.57852
684.0940 41863.90136
684.2889 41388.67021
684.4838 41813.62373
684.6787 41639.87406
684.8736 41118.99368
685.0684 41621.03274
685.2633 41505.32251
685.4581 41824.49844
685.6529 42198.96953
685.8477 42426.25310
686.0425 42232.98629
686.2372 41984.67007
686.4320 41661.62348
686.6267 41642.72073
686.8214 41845.67444
687.0161 41682.47181
687.2108 42015.98352
687.4055 42032.51063
687.6002 41992.37044
687.7948 42049.50877
687.9894 42197.88410
688.1841 42089.91519
688.3787 42183.46640
688.5732 42078.20081
688.7678 42044.42980
688.9624 41795.02817
689.1569 42008.89755
689.3514 41557.87339
689.5459 41241.11406
689.7404 41800.86488
689.9349 41522.73024
690.1294 41753.31105
690.3238 41742.14962
690.5182 41727.52712
690.7127 41805.14513
690.9071 41902.62845
691.1015 41655.17238
691.2958 42044.34788
691.4902 41826.40305
691.6845 42623.43153
691.8789 42021.92263
692.0732 42048.32094
692.2675 41734.36733
692.4618 42192.14979
692.6560 42024.89218
692.8503 42500.06189
693.0445 42309.12976
693.2387 41636.80210
693.4329 42202.30771
693.6271 42069.10783
693.8213 42161.08210
694.0155 42323.52698
694.2096 42128.80612
694.4038 41659.06352
694.5979 41718.08598
694.7920 41758.26713
694.9861 41643.70376
695.1801 41789.27338
695.3742 41518.71623
695.5682 41604.91523
695.7623 41836.78625
695.9563 41671.78141
696.1503 41941.94945
696.3443 41216.43604
696.5382 41945.00092
696.7322 41791.32135
696.9261 42044.53220
697.1201 41385.78257
697.3140 41604.58755
697.5079 41915.87880
697.7017 41399.52444
697.8956 41288.36070
698.0894 41361.00215
698.2833 41690.25409
698.4771 41891.01646
698.6709 42166.20202
698.8647 41841.31226
699.0585 42342.26590
699.2522 41497.86790
699.4460 41560.26951
699.6397 41847.92720
699.8334 41306.34187
700.0271 41764.86159
700.2208 41995.23759
700.4144 42194.64831
700.6081 42179.24759
700.8017 41730.61955
700.9954 41979.28392
701.1890 41565.24608
701.3826 41373.00325
701.5761 41437.80098
701.7697 41424.44822
701.9632 41103.16289
702.1568 41588.40860
702.3503 41477.96165
702.5438 41391.49641
702.7373 40592.95243
702.9308 41386.02833
703.1242 41349.02153
703.3177 41124.91231
703.5111 41261.12272
703.7045 41437.61666
703.8979 41755.68669
704.0913 42020.22281
704.2847 42016.47503
704.4780 41928.06422
704.6713 41299.58357
704.8647 41386.76560
705.0580 41287.60295
705.2513 41194.09270
705.4445 41337.32763
705.6378 41287.80775
705.8311 40628.36181
706.0243 40635.85738
706.2175 41139.76009
706.4107 41089.68725
706.6039 41527.74777
706.7971 41417.32129
706.9902 41348.85770
707.1834 41433.54120
707.3765 40946.71855
707.5696 40717.59181
707.7627 41006.82644
707.9558 41000.60061
708.1489 40643.72158
708.3419 40351.59931
708.5349 40527.88846
708.7280 40420.18579
708.9210 41121.36933
709.1140 41141.33702
709.3069 40726.88959
709.4999 40381.68397
709.6929 40947.14863
709.8858 40435.68891
710.0787 40678.39369
710.2716 40114.60837
710.4645 40612.10094
710.6574 40520.86393
710.8502 40790.72477
711.0431 39982.98542
711.2359 40067.09550
711.4287 39977.64022
711.6215 40193.10701
711.8143 40056.20030
712.0071 39949.80833
712.1998 40219.64869
712.3925 40032.79202
712.5853 40491.65990
712.7780 40377.42420
712.9707 40160.93342
713.1633 40147.02772
713.3560 40458.99480
713.5487 40244.04000
713.7413 40519.43035
713.9339 40538.80414
714.1265 40188.84724
714.3191 40194.37675
714.5117 39864.59235
714.7042 40308.10046
714.8968 40535.62979
715.0893 41125.01471
715.2818 40875.83835
715.4743 40848.98948
715.6668 40258.27338
715.8592 40320.36779
716.0517 40250.73685
716.2441 40528.76909
716.4366 40068.44715
716.6290 40255.91821
716.8214 40433.06751
717.0137 40554.18438
717.2061 40469.17320
717.3984 40400.81200
717.5908 39989.88707
717.7831 39876.71632
717.9754 40263.20898
718.1677 39295.72807
718.3600 39665.46834
718.5522 39619.88056
718.7445 39737.63876
718.9367 39545.90793
719.1289 39841.65510
719.3211 39544.06476
719.5133 39483.48584
719.7054 39481.72459
719.8976 39737.90500
720.0897 39663.33846
720.2818 39854.59826
720.4740 39808.47800
720.6660 39590.38981
720.8581 39557.19224
721.0502 39441.68680
721.2422 39405.54015
721.4343 39657.58366
721.6263 39888.24638
721.8183 39918.33105
722.0103 39934.59192
722.2022 39586.72395
722.3942 39976.32952
722.5861 39330.74833
722.7781 39858.10028
722.9700 40062.54900
723.1619 39834.83536
723.3538 39368.12376
723.5456 39243.23863
723.7375 39484.65318
723.9293 39414.08018
724.1211 39132.50496
724.3129 38882.12030
724.5047 38797.70303
724.6965 39251.71722
724.8883 39086.26182
725.0800 39370.82708
725.2718 39086.03655
725.4635 39104.91882
725.6552 38681.66512
725.8469 39227.48975
726.0385 39621.84661
726.2302 39187.71819
726.4218 38505.88796
726.6135 38656.31126
726.8051 38537.05804
726.9967 38684.94187
727.1882 39007.90654
727.3798 39361.50882
727.5714 39069.93951
727.7629 39114.03228
727.9544 39084.93064
728.1459 38739.13112
728.3374 38708.82118
728.5289 39271.39820
728.7204 38751.86948
728.9118 39271.33676
729.1032 39567.94407
729.2946 39567.22728
729.4860 38554.46578
729.6774 38810.44139
729.8688 38913.18798
730.0602 38626.49284
730.2515 38505.62172
730.4428 38831.65835
730.6341 38513.30160
730.8254 38265.72266
731.0167 38998.07629
731.2080 38613.26296
731.3992 38700.64979
731.5905 38923.71454
731.7817 38636.20021
731.9729 38187.51074
732.1641 38550.00120
732.3553 38243.09261
732.5464 38767.53645
732.7376 38787.56558
732.9287 38785.33329
733.1198 38814.70117
733.3109 38781.38071
733.5020 38688.52581
733.6931 38830.75724
733.8841 38483.40126
734.0752 38745.78702
734.2662 38543.91874
734.4572 38439.67713
734.6482 38063.58815
734.8392 38068.33943
735.0302 37989.18544
735.2211 38123.73699
735.4120 37926.47664
735.6030 38276.96601
735.7939 38129.38938
735.9848 38043.19038
736.1756 37911.21927
736.3665 37754.18103
736.5574 37527.92144
736.7482 38085.13278
736.9390 37825.34794
737.1298 38134.30451
737.3206 38028.95700
737.5114 38198.73360
737.7021 37921.78679
737.8929 37938.35486
738.0836 37851.72578
738.2743 38044.46012
738.4650 37857.25530
738.6557 37411.71969
738.8463 37540.59837
739.0370 37567.89779
739.2276 37251.13846
739.4182 37059.42811
739.6088 37538.26368
739.7994 37055.96704
739.9900 37266.53919
740.1806 37384.52267
740.3711 37617.97063
740.5617 37705.62369
740.7522 37439.44919
740.9427 37331.41884
741.1332 37339.46736
741.3236 37370.67840
741.5141 37500.72442
741.7045 37745.64100
741.8949 37697.34990
742.0854 37243.21283
742.2758 37803.72139
742.4661 37310.57052
742.6565 36940.70736
742.8469 37047.63181
743.0372 37007.51210
743.2275 36453.92567
743.4178 36681.29116
743.6081 36906.93636
743.7984 36720.26400
743.9886 36786.39292
744.1789 36759.40069
744.3691 36666.91442
744.5593 36727.02230
744.7495 36358.92040
744.9397 36342.84384
745.1299 36287.99924
745.3200 35935.70766
745.5102 36222.99671
745.7003 36310.91601
745.8904 36325.39515
746.0805 36640.35226
746.2706 36487.28708
746.4607 36814.36817
746.6507 36873.00151
746.8408 36496.44150
747.0308 36798.61929
747.2208 36227.58416
747.4108 36390.80727
747.6007 36131.63683
747.7907 36590.72998
747.9806 36520.64849
748.1706 36409.01371
748.3605 36499.63633
748.5504 36284.59961
748.7403 36544.60972
748.9302 36169.21705
749.1200 36171.26502
749.3098 36248.16625
749.4997 36006.11682
749.6895 35878.38501
749.8793 35969.29434
750.0691 36550.99939
750.2588 36342.22945
750.4486 36083.20237
750.6383 35978.12109
750.8280 35471.28978
751.0177 35353.26534
751.2074 35453.65677
751.3971 35402.55995
751.5868 35562.83399
751.7764 35156.66034
751.9660 34956.94243
752.1557 35203.41547
752.3453 35879.51139
752.5348 35729.37480
752.7244 35767.42606
752.9140 35729.51816
753.1035 35922.80545
753.2930 35639.81713
753.4825 35474.23886
753.6720 35232.43519
753.8615 35391.52140
754.0510 35239.97171
754.2404 35291.88772
754.4299 35512.14676
754.6193 35462.91359
754.8087 35264.01487
754.9981 35320.12921
755.1875 34978.95810
755.3768 34761.75053
755.5662 35007.83445
755.7555 35049.65398
755.9448 35459.59588
756.1341 35153.71127
756.3234 34644.42240
756.5127 34812.86783
756.7019 35017.62375
756.8912 35118.21997
757.0804 34988.15348
757.2696 34755.97526
757.4588 34508.15056
757.6480 34352.11582
757.8371 34234.05042
758.0263 34162.63775
758.2154 33802.27717
758.4045 33632.62344
758.5936 33506.28425
758.7827 34087.96881
758.9718 34323.95625
759.1609 34131.83630
759.3499 33980.71669
759.5389 33320.63588
759.7280 33489.81858
759.9170 33806.31167
760.1059 33938.69237
760.2949 33891.24093
760.4839 33824.74339
760.6728 33911.78206
760.8617 33797.58732
761.0506 33404.39780
761.2395 33366.30558
761.4284 33190.99946
761.6173 33203.32823
761.8061 33311.13330
761.9950 33268.02356
762.1838 33098.51319
762.3726 33367.37053
762.5614 32849.19347
762.7502 33483.49035
762.9389 33173.61220
763.1277 32934.57329
763.3164 33320.41060
763.5051 33238.45089
763.6938 33361.90245
763.8825 33194.80868
764.0712 33591.62310
764.2598 33279.81986
764.4484 33650.35885
764.6371 33609.44043
764.8257 33294.25804
765.0143 33611.48840
765.2029 33283.91580
765.3914 33621.87160
765.5800 33811.80022
765.7685 33363.74562
765.9570 33104.69805
766.1455 32856.54568
766.3340 32841.37023
766.5225 32940.34856
766.7110 32838.93315
766.8994 32651.74881
767.0878 32478.32681
767.2762 32638.72372
767.4646 32424.83387
767.6530 32546.05314
767.8414 32705.61038
768.0298 32470.91317
768.2181 32663.03311
768.4064 32607.57412
768.5947 32522.60390
768.7830 32178.95474
768.9713 32251.86243
769.1596 31937.99074
769.3478 31910.01548
769.5360 32063.18307
769.7243 31823.63216
769.9125 31536.13831
770.1007 31405.64174
770.2888 31390.28198
770.4770 31235.68081
770.6651 31255.52563
770.8533 31110.81616
771.0414 31083.88537
771.2295 31146.63513
771.4176 31433.69891
771.6056 31604.21279
771.7937 31214.99633
771.9817 30888.05860
772.1698 31313.27835
772.3578 31136.64105
772.5458 31082.63611
772.7337 30827.13153
772.9217 31011.67399
773.1096 30888.71395
773.2976 31119.84770
773.4855 31322.02318
773.6734 30987.30316
773.8613 31095.10824
774.0492 30755.43214
774.2370 30775.05168
774.4249 31223.63876
774.6127 31410.61830
774.8005 31228.94300
774.9883 31086.65013
775.1761 31144.25949
775.3639 30677.71173
775.5516 30864.52744
775.7394 30505.35468
775.9271 30407.62561
776.1148 30306.35355
776.3025 29620.61170
776.4902 29922.93285
776.6778 29756.33059
776.8655 30048.80100
777.0531 30507.17737
777.2407 30342.07013
777.4283 29894.52752
777.6159 30198.26176
777.8035 30084.00559
777.9911 29635.95098
778.1786 30049.92739
778.3661 29876.64875
778.5536 29920.12713
778.7411 30266.86872
778.9286 30472.60766
779.1161 30228.14163
779.3036 29663.18897
779.4910 29741.70809
779.6784 29716.47712
779.8658 29991.51932
780.0532 29678.77401
780.2406 29808.26707
780.4280 29217.71481
780.6153 29530.33724
780.8026 29632.89951
780.9900 29626.20265
781.1773 29263.44595
781.3646 29533.22487
781.5518 29243.13010
781.7391 29559.93038
781.9263 29094.75476
782.1136 28980.62146
782.3008 28725.48552
782.4880 28852.35718
782.6752 28810.47622
782.8623 28809.00168
783.0495 28999.33990
783.2366 28610.84023
783.4237 28687.24994
783.6108 29038.45610
783.7979 28751.39232
783.9850 28812.64707
784.1721 29124.06120
784.3591 28663.32967
784.5462 28698.24753
784.7332 28763.37294
784.9202 28757.72055
785.1072 28617.55756
785.2941 28660.48299
785.4811 28395.90591
785.6681 28461.70714
785.8550 28479.83167
786.0419 28397.48284
786.2288 28092.29454
786.4157 27886.82183
786.6025 27989.62987
786.7894 28058.38018
786.9762 28002.77783
787.1631 27664.98586
787.3499 28098.84804
787.5367 27998.82525
787.7234 27581.67449
787.9102 27683.25374
788.0970 27655.91336
788.2837 27836.52372
788.4704 27441.98254
788.6571 27266.10299
788.8438 27359.96139
789.0305 27208.00211
789.2171 27170.15565
789.4038 26918.46029
789.5904 26946.70178
789.7770 27026.10153
789.9636 26935.13076
790.1502 27251.89008
790.3368 27212.34381
790.5233 27076.21532
790.7099 27013.69084
790.8964 26649.25480
791.0829 26376.83400
791.2694 26374.88842
791.4559 26357.29637
791.6423 26284.42965
791.8288 26339.90912
792.0152 26535.51061
792.2016 26528.64992
792.3880 26592.56702
792.5744 26350.47664
792.7608 25993.92528
792.9471 26218.89465
793.1335 26579.21427
793.3198 26258.89147
793.5061 26289.77484
793.6924 25833.91748
793.8787 25902.83163
794.0650 25863.61303
794.2512 26030.97303
794.4375 26228.04907
794.6237 26328.46097
794.8099 26197.24762
794.9961 25776.94299
795.1823 25694.65560
795.3684 25767.35850
795.5546 25485.68087
795.7407 25653.32760
795.9268 25203.67558
796.1129 25418.69182
796.2990 25849.44108
796.4851 26183.79246
796.6712 25876.59715
796.8572 25483.34619
797.0432 25307.83527
797.2292 25603.35716
797.4152 25517.87494
797.6012 24975.67522
797.7872 24978.13278
797.9731 25139.26696
798.1591 24863.15981
798.3450 24841.65614
798.5309 25071.66351
798.7168 25142.52323
798.9027 25179.89866
799.0885 25069.73842
799.2744 24908.39944
799.4602 25272.67164
799.6460 25240.23182
799.8318 25512.24303
800.0176 25134.94575
800.2034 25144.69408
800.3892 24628.29876
800.5749 24542.69366
800.7606 24588.85488
800.9463 24673.10831
801.1320 24635.52809
801.3177 24679.51845
801.5034 24709.27544
801.6890 24792.15674
801.8747 24414.14266
802.0603 24026.46218
802.2459 24044.52526
802.4315 24076.08446
802.6171 23834.89518
802.8026 24184.03290
802.9882 24176.43493
803.1737 23796.98728
803.3592 24065.39407
803.5447 24249.79317
803.7302 24230.11219
803.9157 24145.73588
804.1012 24211.88527
804.2866 23715.70340
804.4720 23820.74372
804.6574 23629.99591
804.8428 23451.06488
805.0282 23393.80367
805.2136 23448.87355
805.3989 23767.43509
805.5843 23435.39792
805.7696 23351.69744
805.9549 23235.22945
806.1402 23231.25639
806.3255 23033.03350
806.5107 23183.04721
806.6960 23478.03663
806.8812 23086.69028
807.0664 23182.02322
807.2516 22838.57887
807.4368 22672.85723
807.6220 22651.98843
807.8072 22607.83423
807.9923 22687.88932
808.1774 22710.58082
808.3625 22992.48372
808.5476 22946.65018
808.7327 22959.26566
808.9178 22648.54785
809.1028 22665.66886
809.2879 22532.05938
809.4729 22476.14984
809.6579 22308.54407
809.8429 22604.20932
810.0279 22494.58155
810.2128 22490.48562
810.3978 22472.75021
810.5827 22528.63927
810.7676 22662.08492
810.9525 22721.96753
811.1374 22465.84855
811.3223 22353.14883
811.5072 21974.25413
811.6920 21978.67775
811.8768 22261.39983
812.0616 21886.62155
812.2464 22114.41712
812.4312 21989.24527
812.6160 21963.87093
812.8007 22069.27988
812.9855 22163.81412
813.1702 21877.65145
813.3549 21779.47183
813.5396 21632.10000
813.7243 21511.20840
813.9089 21750.04252
814.0936 21819.07954
814.2782 21813.73434
814.4628 21837.71606
814.6474 21859.93652
814.8320 21704.84385
815.0166 21452.16546
815.2012 21645.90330
815.3857 21441.86418
815.5702 21438.44407
815.7547 21512.39622
815.9392 21496.11487
816.1237 21226.97082
816.3082 20841.44070
816.4926 21038.51673
816.6771 21063.68627
816.8615 20823.23426
817.0459 21018.34424
817.2303 20974.29243
817.4147 21138.68288
817.5990 21152.09708
817.7834 20971.13856
817.9677 20891.20634
818.1520 21071.61191
818.3363 20849.01818
818.5206 20627.79660
818.7049 20750.06033
818.8891 20796.42635
819.0734 20790.20052
819.2576 20699.14783
819.4418 20413.21043
819.6260 20423.59364
819.8102 20471.51610
819.9944 20325.45497
820.1785 20192.93092
820.3627 20385.76765
820.5468 20366.45531
820.7309 20194.81505
820.9150 20017.62479
821.0991 19840.49597
821.2831 20114.90331
821.4672 19946.21212
821.6512 19816.59618
821.8352 19847.02899
822.0192 20174.43776
822.2032 19940.47781
822.3872 20090.79871
822.5711 19891.98191
822.7551 19860.23839
822.9390 19981.19143
823.1229 20045.92772
823.3068 20015.20819
823.4907 19637.03028
823.6745 19679.95570
823.8584 19638.44338
824.0422 19580.83402
824.2261 19596.33714
824.4099 19741.16949
824.5937 19874.32842
824.7774 19736.45916
824.9612 19716.51195
825.1449 19644.58728
825.3287 19597.87312
825.5124 19508.49976
825.6961 19663.05996
825.8798 19708.58631
826.0634 19792.06151
826.2471 19524.55583
826.4307 19565.51521
826.6144 19510.58869
826.7980 19643.37898
826.9816 19395.36997
827.1652 19559.98569
827.3487 19428.42418
827.5323 19138.71852
827.7158 18953.33639
827.8993 19219.53137
828.0828 19141.33992
828.2663 18893.53570
828.4498 19070.66452
828.6333 19402.35354
828.8167 19197.65906
829.0001 19210.84798
829.1836 19258.07414
829.3670 19234.17435
829.5504 19412.06091
829.7337 18995.62695
829.9171 18995.11495
830.1004 19041.46049
830.2837 18929.94859
830.4671 18721.50633
830.6504 18551.75020
830.8336 18686.99805
831.0169 18574.13450
831.2002 18733.34359
831.3834 18749.23582
831.5666 18698.17996
831.7498 18747.37217
831.9330 18922.06391
832.1162 18852.08482
832.2993 18677.98699
832.4825 18740.08140
832.6656 18624.49405
832.8487 18390.22690
833.0318 18380.51953
833.2149 18263.78531
833.3980 18422.97392
833.5811 18488.09933
833.7641 18425.39053
833.9471 18341.58765
834.1301 18147.68596
834.3131 17969.30789
834.4961 18146.84630
834.6791 18105.53877
834.8620 18478.69915
835.0450 18439.84919
835.2279 18551.23821
835.4108 18356.10774
835.5937 18542.96441
835.7766 18214.73646
835.9594 18290.01979
836.1423 18217.48074
836.3251 18507.53455
836.5079 18438.12889
836.6907 18115.79909
836.8735 18128.27122
837.0563 18197.79976
837.2390 18132.73579
837.4218 17904.26440
837.6045 18107.46386
837.7872 18279.18604
837.9699 17997.20122
838.1526 17811.36854
838.3352 17906.64004
838.5179 17985.60972
838.7005 17971.41729
838.8831 17962.44719
839.0658 18032.91780
839.2483 18246.84861
839.4309 18139.06402
839.6135 18139.84224
839.7960 17867.05281
839.9786 17896.21588
840.1611 17613.45284
840.3436 17805.96190
840.5261 17619.51482
840.7085 17471.73340
840.8910 17410.17146
841.0734 17529.13796
841.2559 17464.15591
841.4383 17592.50212
841.6207 17802.39843
841.8030 17478.24594
841.9854 17434.52181
842.1678 17305.09018
842.3501 17387.62332
842.5324 17327.82263
842.7147 17425.79746
842.8970 17660.08508
843.0793 17487.33892
843.2615 17480.08911
843.4438 17614.41538
843.6260 17603.97074
843.8082 17552.11617
843.9904 17564.99790
844.1726 17244.47031
844.3548 17091.89663
844.5369 17052.06364
844.7191 17110.32835
844.9012 16997.85391
845.0833 17038.87472
845.2654 17294.07211
845.4475 17454.10039
845.6296 17171.48070
845.8116 17075.47192
845.9936 17021.91754
846.1757 16865.08410
846.3577 16747.46925
846.5397 16757.50430
846.7216 16767.62126
846.9036 16698.85047
847.0855 16497.86282
847.2675 16700.59125
847.4494 16811.07916
847.6313 16950.79159
847.8132 16965.22977
847.9950 16796.60002
848.1769 16725.76078
848.3587 16877.69958
848.5406 16729.95912
848.7224 16702.47538
848.9042 16693.36192
849.0860 16799.38526
849.2677 16562.29192
849.4495 16409.90256
849.6312 16449.53076
849.8129 16627.82692
849.9946 16868.34037
850.1763 16716.68828
850.3580 16453.27854
850.5397 16343.42550
850.7213 16147.14817
850.9029 16211.94590
851.0845 16350.18379
851.2661 16367.85776
851.4477 16296.54749
851.6293 16272.64770
851.8109 16199.57617
851.9924 16191.32286
852.1739 16308.22091
852.3554 16203.11916
852.5369 16244.26285
852.7184 16003.56508
852.8999 15897.58270
853.0813 15933.99558
853.2628 15944.54262
853.4442 16088.63770
853.6256 16031.13074
853.8070 16029.04181
853.9883 16201.17359
854.1697 16046.44955
854.3510 15747.28227
854.5324 15803.13038
854.7137 15773.33243
854.8950 15792.62430
855.0763 15834.83294
855.2575 15865.34767
855.4388 15816.03258
855.6200 15855.33310
855.8013 15853.55137
855.9825 15646.48125
856.1637 15586.61912
856.3449 15630.62997
856.5260 15643.79841
856.7072 15504.00406
856.8883 15696.47217
857.0694 15573.96268
857.2505 15566.58999
857.4316 15504.70037
857.6127 15358.78260
857.7938 15494.58341
857.9748 15371.33665
858.1558 15284.91237
858.3368 15264.73988
858.5178 15222.69508
858.6988 15265.88674
858.8798 15206.84380
859.0607 15412.15267
859.2417 15352.90493
859.4226 15361.99791
859.6035 15363.32909
859.7844 15341.55918
859.9653 15256.85520
860.1462 15171.37298
860.3270 15173.48239
860.5078 15092.87434
860.6887 15173.99438
860.8695 15100.12415
861.0503 15050.11275
861.2310 14755.57388
861.4118 14764.78974
861.5925 14785.57663
861.7733 14775.56206
861.9540 14596.05760
862.1347 14502.11727
862.3154 14511.90656
862.4960 14697.12486
862.6767 14685.18520
862.8573 14693.47947
863.0380 14553.74656
863.2186 14544.61262
863.3992 14318.78311
863.5797 14381.75815
863.7603 14440.73965
863.9409 14468.57154
864.1214 14416.18450
864.3019 14340.20486
864.4824 14190.82602
864.6629 14101.98514
864.8434 13937.69708
865.0238 13961.51496
865.2043 14048.08260
865.3847 13884.67517
865.5651 13848.75380
865.7455 13975.91218
865.9259 14013.59481
866.1063 13881.62370
866.2866 13832.37005
866.4670 13769.04686
866.6473 13721.10391
866.8276 13681.51667
867.0079 13705.27311
867.1882 13524.78563
867.3684 13363.89720
867.5487 13424.49660
867.7289 13538.50702
867.9091 13501.00871
868.0893 13288.32715
868.2695 13064.27937
868.4497 12989.11892
868.6299 13017.25801
868.8100 13081.74855
868.9901 13101.69576
869.1703 13307.90573
869.3504 13276.48989
869.5304 13195.43129
869.7105 13344.33910
869.8906 13188.09956
870.0706 13048.40761
870.2506 13047.19931
870.4306 13085.49633
870.6106 13085.72160
870.7906 13205.50730
870.9706 13114.55700
871.1505 12998.00710
871.3305 12948.58962
871.5104 12926.04148
871.6903 12804.94509
871.8702 12839.82200
872.0500 12839.47384
872.2299 12832.38787
872.4097 12675.39059
872.5896 12673.89557
872.7694 12691.07803
872.9492 12751.32927
873.1290 12430.59688
873.3087 12459.35036
873.4885 12772.71006
873.6682 12698.73743
873.8480 12544.64826
874.0277 12478.56031
874.2074 12172.16370
874.3870 12226.70111
874.5667 12246.81217
874.7463 12428.30316
874.9260 12275.29941
875.1056 12229.42491
875.2852 12225.12418
875.4648 12243.31014
875.6444 12215.51920
875.8239 12321.50159
876.0035 12231.18616
876.1830 12096.79845
876.3625 12029.62508
876.5420 12038.22655
876.7215 12022.47767
876.9010 11945.80172
877.0804 11906.15304
877.2599 11744.65023
877.4393 11891.07999
877.6187 11985.04080
877.7981 12026.18449
877.9775 11940.31316
878.1568 11988.95242
878.3362 11860.95437
878.5155 11879.30417
878.6948 11685.38201
878.8741 11682.82205
879.0534 11641.71932
879.2327 11559.71865
879.4119 11621.42395
879.5912 11513.12736
879.7704 11633.19977
879.9496 11793.16661
880.1288 11756.11885
880.3080 11547.24652
880.4872 11637.58242
880.6663 11643.21434
880.8455 11571.57639
881.0246 11638.50401
881.2037 11610.65163
881.3828 11534.99967
881.5619 11516.15835
881.7409 11477.67702
881.9200 11410.62653
882.0990 11467.86725
882.2780 11386.76769
882.4570 11341.46662
882.6360 11340.70887
882.8150 11197.06434
882.9940 11204.25271
883.1729 11277.87719
883.3518 11453.47003
883.5308 11390.86363
883.7096 11313.24561
883.8885 11139.10683
884.0674 11038.18293
884.2463 10958.86510
884.4251 11026.40711
884.6039 11001.91340
884.7827 11061.48881
884.9615 11038.53108
885.1403 10995.76950
885.3191 10899.80168
885.4978 10791.70989
885.6765 10772.72522
885.8553 10910.14392
886.0340 10981.90475
886.2127 10882.00483
886.3913 10704.11827
886.5700 10605.85672
886.7486 10494.22195
886.9273 10499.09611
887.1059 10492.35830
887.2845 10383.83643
887.4630 10410.56243
887.6416 10503.31493
887.8202 10564.34440
887.9987 10553.65400
888.1772 10556.00917
888.3557 10486.43967
888.5342 10423.60799
888.7127 10526.00642
888.8912 10574.05177
889.0696 10607.82277
889.2481 10400.03587
889.4265 10253.07363
889.6049 10179.85875
889.7833 10153.29659
889.9616 10084.32100
890.1400 10078.93485
890.3183 9983.86814
890.4967 10077.91086
890.6750 10247.07308
890.8533 10114.54902
891.0316 9984.97404
891.2098 9888.55567
891.3881 9889.82541
891.5663 9834.12066
891.7445 9878.47966
891.9227 9846.67471
892.1009 9823.04115
892.2791 9926.29973
892.4573 9880.34332
892.6354 9769.75300
892.8136 9876.02210
892.9917 9847.69869
893.1698 9777.96536
893.3479 9854.33411
893.5259 9876.98465
893.7040 9731.57887
893.8820 9727.93348
894.0601 9628.81179
894.2381 9733.19676
894.4161 9810.63046
894.5941 9904.71414
894.7720 9865.65938
894.9500 9901.13020
895.1279 9962.89694
895.3058 9766.84489
895.4838 9720.00784
895.6616 9613.67730
895.8395 9524.87738
896.0174 9545.88954
896.1952 9605.66975
896.3731 9706.85988
896.5509 9693.44569
896.7287 9635.65201
896.9065 9572.45169
897.0842 9665.65475
897.2620 9594.32400
897.4397 9509.21042
897.6175 9522.15358
897.7952 9600.22215
897.9729 9660.86250
898.1506 9606.95997
898.3282 9500.24032
898.5059 9461.20603
898.6835 9473.20713
898.8611 9527.76502
899.0388 9356.22715
899.2163 9218.13262
899.3939 9196.05552
899.5715 9400.91383
899.7490 9423.33909
899.9266 9319.65043
900.1041 9355.22365
900.2816 9345.31148
900.4591 9318.05302
900.6365 9339.96628
900.8140 9195.89168
900.9914 9191.81622
901.1689 9170.55831
901.3463 9214.46676
901.5237 9271.11357
901.7011 9152.49522
901.8784 9106.64120
902.0558 9010.89866
902.2331 9098.87940
902.4104 9153.62160
902.5878 9136.97162
902.7650 9025.07061
902.9423 8964.49169
903.1196 9085.81336
903.2968 9142.23490
903.4741 9104.87995
903.6513 9054.80711
903.8285 8987.38798
904.0057 9058.45250
904.1828 8923.10224
904.3600 8792.05272
904.5371 8791.84793
904.7143 8830.98461
904.8914 8883.22829
905.0685 8965.41328
905.2456 8891.72736
905.4226 8877.43254
905.5997 8968.83338
905.7767 9062.03644
905.9537 8952.73635
906.1307 8888.20485
906.3077 8837.00564
906.4847 8831.68092
906.6617 8773.74388
906.8386 8870.59232
907.0156 8765.57249
907.1925 8712.55057
907.3694 8670.69009
907.5463 8669.74803
907.7231 8665.52921
907.9000 8723.11809
908.0768 8719.43175
908.2537 8623.77113
908.4305 8556.41344
908.6073 8629.75120
908.7841 8667.80246
908.9608 8597.16802
909.1376 8563.88852
909.3143 8611.79051
909.4910 8558.72764
909.6677 8588.64847
909.8444 8560.57081
910.0211 8515.94557
910.1978 8498.21017
910.3744 8598.29440
910.5510 8604.02871
910.7277 8616.45988
910.9043 8516.02749
911.0808 8477.38232
911.2574 8452.68382
911.4340 8439.43346
911.6105 8324.15330
911.7870 8323.43651
911.9636 8355.46674
912.1401 8304.96383
912.3165 8349.09756
912.4930 8289.95222
912.6695 8218.96963
912.8459 8202.91355
913.0223 8182.49530
913.1987 8150.15788
913.3751 8125.23410
913.5515 8144.93556
913.7279 8191.67020
913.9042 8141.92504
914.0805 8070.92197
914.2568 8065.63821
914.4331 8057.26201
914.6094 8044.60557
914.7857 8049.11110
914.9620 8068.01385
915.1382 7989.18753
915.3144 7968.40065
915.4906 8078.39705
915.6668 8064.34799
915.8430 7994.12314
916.0192 7843.41312
916.1953 7877.90091
916.3715 7912.45014
916.5476 7860.53414
916.7237 7938.50031
916.8998 7927.07264
917.0759 7799.07459
917.2519 7746.64659
917.4280 7859.57159
917.6040 7805.01370
917.7800 7840.77124
917.9560 7786.45911
918.1320 7840.15685
918.3080 7836.90058
918.4839 7788.91667
918.6599 7782.87516
918.8358 7763.74713
919.0117 7713.14182
919.1876 7691.55623
919.3635 7685.84240
919.5394 7822.95391
919.7152 7775.58439
919.8911 7699.99387
920.0669 7660.65239
920.2427 7495.97522
920.4185 7455.85551
920.5942 7501.54569
920.7700 7451.20662
920.9458 7575.02681
921.1215 7532.28570
921.2972 7522.92649
921.4729 7523.95047
921.6486 7403.61183
921.8243 7243.48115
921.9999 7291.52650
922.1756 7298.59199
922.3512 7325.76854
922.5268 7269.06028
922.7024 7382.64063
922.8780 7406.17179
923.0535 7378.15558
923.2291 7328.75857
923.4046 7373.40429
923.5801 7466.36159
923.7557 7421.85923
923.9311 7400.35556
924.1066 7331.19565
924.2821 7353.55947
924.4575 7337.25764
924.6330 7309.95822
924.8084 7242.41621
924.9838 7196.91034
925.1592 7196.43931
925.3345 7168.95557
925.5099 7087.50785
925.6852 7060.80234
925.8606 7109.97407
926.0359 7051.81176
926.2112 7037.78317
926.3864 6978.45352
926.5617 6871.85674
926.7370 6851.88905
926.9122 6842.03832
927.0874 6857.27520
927.2626 6853.32263
927.4378 6819.16251
927.6130 6834.31748
927.7882 6816.27487
927.9633 6703.75947
928.1384 6687.74435
928.3135 6661.03884
928.4886 6596.60974
928.6637 6625.69090
928.8388 6677.01300
929.0139 6635.31635
929.1889 6621.57448
929.3639 6597.36749
929.5389 6621.28777
929.7139 6616.65936
929.8889 6621.28777
930.0639 6643.07815
930.2388 6545.63580
930.4138 6499.94562
930.5887 6491.61038
930.7636 6515.87881
930.9385 6504.18491
931.1134 6462.81594
931.2882 6491.63086
931.4631 6383.55955
931.6379 6347.08523
931.8127 6285.13418
931.9875 6287.69414
932.1623 6286.99783
932.3371 6288.55428
932.5118 6231.35452
932.6866 6183.75972
932.8613 6230.49437
933.0360 6225.74308
933.2107 6190.08795
933.3854 6135.55054
933.5600 6167.70365
933.7347 6050.68271
933.9093 6051.58382
934.0839 6104.87197
934.2586 6123.24225
934.4331 6091.00722
934.6077 6065.42809
934.7823 6029.79343
934.9568 6107.04281
935.1314 6027.27443
935.3059 6024.79639
935.4804 5928.56234
935.6549 5947.85420
935.8293 5948.14092
936.0038 5922.11123
936.1782 5952.17542
936.3526 5962.23094
936.5271 5892.37473
936.7015 5839.84433
936.8758 5831.77533
937.0502 5794.13367
937.2246 5827.67940
937.3989 5922.56179
937.5732 5833.20891
937.7475 5784.93829
937.9218 5750.81913
938.0961 5733.16564
938.2703 5703.85920
938.4446 5665.58267
938.6188 5708.93817
938.7930 5715.88078
938.9672 5678.46439
939.1414 5727.67708
939.3156 5630.76720
939.4897 5621.42846
939.6639 5567.75120
939.8380 5567.05489
940.0121 5545.44882
940.1862 5558.86302
940.3603 5603.73401
940.5344 5613.09323
940.7084 5573.01448
940.8824 5536.25344
941.0565 5538.32189
941.2305 5468.85479
941.4045 5397.81075
941.5784 5366.47683
941.7524 5400.49359
941.9263 5469.01863
942.1003 5464.84077
942.2742 5449.25573
942.4481 5372.00635
942.6220 5401.33326
942.7958 5387.75523
942.9697 5410.95871
943.1435 5368.54528
943.3174 5356.15507
943.4912 5285.86878
943.6650 5278.88521
943.8387 5222.25887
944.0125 5214.06700
944.1863 5253.75663
944.3600 5268.01050
944.5337 5283.55458
944.7074 5300.14312
944.8811 5279.17192
945.0548 5244.49981
945.2284 5190.16720
945.4021 5169.54416
945.5757 5199.73122
945.7493 5157.17443
945.9229 5012.66975
946.0965 4945.70117
946.2701 4958.54194
946.4436 4996.16312
946.6172 4983.01516
946.7907 4983.77291
946.9642 4983.21996
947.1377 4983.42476
947.3112 4958.78769
947.4847 4966.16038
947.6581 5011.48193
947.8315 4997.47382
948.0050 4915.04308
948.1784 4865.80991
948.3518 4906.23682
948.5251 4912.40120
948.6985 4969.62145
948.8718 4941.17516
949.0452 4834.23023
949.2185 4810.49428
949.3918 4808.18007
949.5651 4824.78910
949.7383 4804.88284
949.9116 4788.78581
950.0848 4814.36494
950.2581 4825.50589
950.4313 4841.82820
950.6045 4880.22761
950.7776 4885.22466
950.9508 4794.15149
951.1239 4767.93749
951.2971 4674.34531
951.4702 4702.79160
951.6433 4691.36393
951.8164 4663.90067
951.9895 4669.75786
952.1625 4615.19998
952.3356 4639.48889
952.5086 4611.43171
952.6816 4618.55865
952.8546 4594.08542
953.0276 4539.48657
953.2006 4554.84634
953.3735 4562.11663
953.5465 4593.98302
953.7194 4579.72916
953.8923 4536.78325
954.0652 4557.42678
954.2381 4531.43805
954.4109 4508.74656
954.5838 4478.90766
954.7566 4482.32776
954.9294 4441.79846
955.1022 4435.67504
955.2750 4432.62356
955.4478 4404.15680
955.6206 4444.64514
955.7933 4461.15177
955.9660 4422.30180
956.1388 4455.06930
956.3115 4444.01027
956.4841 4379.47877
956.6568 4330.59376
956.8295 4345.91257
957.0021 4321.52126
957.1747 4340.46497
957.3473 4327.09173
957.5199 4308.92625
957.6925 4296.22884
957.8651 4308.78289
958.0376 4293.19785
958.2102 4273.74215
958.3827 4307.34931
958.5552 4354.71883
958.7277 4306.69396
958.9001 4282.17978
959.0726 4222.99348
959.2450 4169.09094
959.4175 4162.74224
959.5899 4126.34984
959.7623 4101.46702
959.9347 4079.71759
960.1070 4065.11557
960.2794 4105.33768
960.4517 4081.76556
960.6241 4101.99949
960.7964 4096.01942
960.9687 4133.90684
961.1409 4140.60370
961.3132 4099.48049
961.4855 4091.75964
961.6577 4055.49012
961.8299 4033.18774
962.0021 4007.58813
962.1743 3979.12136
962.3465 3933.61550
962.5186 3920.52898
962.6908 3925.32122
962.8629 3924.70683
963.0350 3883.29690
963.2071 3899.02530
963.3792 3901.74910
963.5513 3926.65240
963.7233 3958.39592
963.8954 3952.74352
964.0674 3944.63357
964.2394 3916.26920
964.4114 3885.83639
964.5834 3887.37236
964.7553 3860.42109
964.9273 3856.59139
965.0992 3846.33107
965.2711 3886.69653
965.4430 3856.30468
965.6149 3821.40729
965.7868 3817.16799
965.9587 3819.58460
966.1305 3840.37148
966.3023 3837.15617
966.4741 3827.24400
966.6459 3816.63552
966.8177 3820.75194
966.9895 3809.91818
967.1613 3833.10119
967.3330 3796.17631
967.5047 3763.20402
967.6764 3753.55808
967.8481 3752.41122
968.0198 3734.40958
968.1915 3725.17324
968.3631 3683.23084
968.5347 3680.54800
968.7064 3696.58359
968.8780 3696.46072
969.0496 3680.65040
969.2211 3670.45151
969.3927 3670.67679
969.5642 3625.60100
969.7358 3608.04990
969.9073 3600.06283
970.0788 3631.27387
970.2503 3636.04564
970.4217 3651.63068
970.5932 3623.83974
970.7646 3609.21725
970.9360 3623.26631
971.1074 3657.87698
971.2788 3686.46663
971.4502 3635.79988
971.6216 3579.60362
971.7929 3541.88003
971.9643 3544.23520
972.1356 3565.69791
972.3069 3564.44865
972.4782 3533.17617
972.6494 3528.93687
972.8207 3507.14648
972.9919 3504.32029
973.1632 3476.65223
973.3344 3471.32751
973.5056 3446.42421
973.6768 3432.84618
973.8479 3461.59966
974.0191 3481.38304
974.1902 3494.20332
974.3614 3480.13378
974.5325 3465.24504
974.7036 3442.84027
974.8746 3436.24581
975.0457 3446.50613
975.2167 3417.87553
975.3878 3384.06356
975.5588 3376.07648
975.7298 3375.44161
975.9008 3343.10419
976.0718 3335.32191
976.2427 3332.14755
976.4137 3329.71047
976.5846 3324.59055
976.7555 3321.82579
976.9264 3335.71102
977.0973 3332.29091
977.2682 3328.85032
977.4390 3348.85898
977.6098 3363.54292
977.7807 3339.74552
977.9515 3340.99478
978.1223 3347.36396
978.2930 3328.09258
978.4638 3293.74814
978.6346 3251.08895
978.8053 3220.08270
978.9760 3227.61923
979.1467 3184.89860
979.3174 3187.99103
979.4881 3192.84472
979.6587 3194.33974
979.8294 3190.77627
980.0000 3173.63477
980.1706 3166.20065
980.3412 3167.55231
980.5118 3202.22442
980.6824 3187.82720
980.8529 3194.07350
981.0235 3182.42056
981.1940 3180.12683
981.3645 3159.83146
981.5350 3159.85194
981.7055 3140.72392
981.8759 3138.34827
982.0464 3144.41026
982.2168 3118.11434
982.3872 3134.80529
982.5576 3112.31859
982.7280 3106.46140
982.8984 3125.71230
983.0687 3132.24533
983.2391 3133.08499
983.4094 3116.02541
983.5797 3090.18005
983.7500 3077.23688
983.9203 3052.45646
984.0906 3065.46106
984.2608 3042.40094
984.4311 3044.24411
984.6013 3022.08509
984.7715 3070.82674
984.9417 3069.86420
985.1119 3061.93856
985.2820 3014.52808
985.4522 2995.37957
985.6223 3009.61296
985.7924 3020.40575
985.9625 3032.38637
986.1326 3044.14171
986.3027 3020.56959
986.4727 3021.57309
986.6428 3024.13305
986.8128 3006.70484
986.9828 2982.66169
987.1528 2968.18255
987.3228 2964.90580
987.4928 2981.92442
987.6627 2981.92442
987.8327 2962.34584
988.0026 2968.94030
988.1725 2985.40597
988.3424 2962.28440
988.5123 2960.83034
988.6821 2943.38165
988.8520 2939.53147
989.0218 2899.73943
989.1916 2910.92134
989.3614 2888.88520
989.5312 2881.08244
989.7010 2872.29665
989.8707 2877.17082
990.0405 2873.62783
990.2102 2885.23981
990.3799 2881.32819
990.5496 2865.37452
990.7193 2857.03928
990.8890 2854.19261
991.0586 2840.94225
991.2283 2849.33892
991.3979 2842.62158
991.5675 2863.36751
991.7371 2839.32435
991.9067 2824.74282
992.0762 2798.54930
992.2458 2814.15482
992.4153 2844.62859
992.5848 2832.40222
992.7543 2839.36531
992.9238 2807.29412
993.0933 2808.80962
993.2627 2806.00390
993.4322 2789.53823
993.6016 2786.60964
993.7710 2770.18493
993.9404 2768.56703
994.1098 2761.87018
994.2792 2756.97553
994.4485 2770.86076
994.6179 2772.41722
994.7872 2778.86832
994.9565 2774.15799
995.1258 2784.27495
995.2951 2772.39674
995.4643 2782.32938
995.6336 2795.33399
995.8028 2780.44525
995.9720 2749.29565
996.1412 2737.39695
996.3104 2758.79822
996.4796 2762.52553
996.6487 2757.67184
996.8179 2754.43605
996.9870 2736.18865
997.1561 2708.66395
997.3252 2712.00214
997.4943 2693.59090
997.6634 2690.62134
997.8324 2692.48500
998.0014 2696.68333
998.1705 2684.23168
998.3395 2679.11176
998.5085 2650.37876
998.6774 2652.50865
998.8464 2636.04298
999.0153 2636.20681
999.1843 2645.85275
999.3532 2650.76787
999.5221 2611.99982
999.6910 2616.09576
999.8599 2652.59056
1000.0287 2665.41085
1000.1976 2667.76601
1000.3664 2669.73206
1000.5352 2659.34886
1000.7040 2661.84738
1000.8728 2663.97727
1001.0415 2624.79963
1001.2103 2604.46330
1001.3790 2607.82197
1001.5478 2594.24393
1001.7165 2586.05206
1001.8851 2570.52846
1002.0538 2583.67642
1002.2225 2596.00519
1002.3911 2589.86128
1002.5598 2570.89709
1002.7284 2560.88252
1002.8970 2546.50578
1003.0656 2551.23659
1003.2341 2525.12499
1003.4027 2538.39583
1003.5712 2494.99937
1003.7398 2505.30065
1003.9083 2499.05435
1004.0768 2489.12170
1004.2453 2484.41137
1004.4137 2510.60489
1004.5822 2517.24031
1004.7506 2522.52407
1004.9190 2491.88646
1005.0874 2490.53480
1005.2558 2494.05730
1005.4242 2485.94735
1005.5926 2495.28608
1005.7609 2483.91986
1005.9292 2457.89017
1006.0976 2481.54421
1006.2659 2476.83389
1006.4342 2516.25728
1006.6024 2485.31248
1006.7707 2478.77946
1006.9389 2464.38224
1007.1071 2468.86729
1007.2754 2465.63150
1007.4436 2463.50161
1007.6117 2466.51212
1007.7799 2464.75087
1007.9481 2459.30327
1008.1162 2450.51749
1008.2843 2440.27764
1008.4524 2443.90255
1008.6205 2428.64518
1008.7886 2448.24424
1008.9566 2431.45090
1009.1247 2419.40884
1009.2927 2409.94723
1009.4607 2412.89630
1009.6287 2396.53303
1009.7967 2415.82490
1009.9647 2396.18488
1010.1327 2379.88305
1010.3006 2353.77144
1010.4685 2345.23141
1010.6364 2360.14063
1010.8043 2363.45834
1010.9722 2347.27938
1011.1401 2335.23733
1011.3079 2340.17293
1011.4758 2343.40872
1011.6436 2327.72128
1011.8114 2344.33031
1011.9792 2332.10393
1012.1470 2349.98270
1012.3147 2355.18454
1012.4825 2353.30041
1012.6502 2360.50926
1012.8179 2345.14950
1012.9856 2331.96058
1013.1533 2331.07995
1013.3210 2300.79049
1013.4886 2297.43182
1013.6563 2308.26558
1013.8239 2302.96134
1013.9915 2311.09177
1014.1591 2302.83846
1014.3267 2311.60377
1014.4942 2320.57387
1014.6618 2311.56281
1014.8293 2320.26667
1014.9969 2309.88347
1015.1644 2323.83014
1015.3319 2324.66981
1015.4993 2292.18902
1015.6668 2279.77833
1015.8342 2264.95104
1016.0017 2266.99901
1016.1691 2279.73737
1016.3365 2268.28923
1016.5039 2269.33369
1016.6712 2266.44606
1016.8386 2267.47004
1017.0059 2255.93998
1017.1733 2275.08848
1017.3406 2252.74515
1017.5079 2265.99550
1017.6752 2235.89036
1017.8424 2250.53334
1018.0097 2246.53980
1018.1769 2242.48482
1018.3441 2240.90789
1018.5113 2244.71711
1018.6785 2220.79683
1018.8457 2216.27082
1019.0129 2223.39775
1019.1800 2228.06712
1019.3471 2241.82947
1019.5142 2224.83133
1019.6813 2216.02507
1019.8484 2226.26491
1020.0155 2206.78873
1020.1826 2207.34168
1020.3496 2198.12582
1020.5166 2193.45645
1020.6836 2185.59225
1020.8506 2181.31200
1021.0176 2163.92474
1021.1846 2182.78653
1021.3515 2183.87196
1021.5185 2190.56881
1021.6854 2176.47879
1021.8523 2188.84852
1022.0192 2188.78708
1022.1861 2186.86199
1022.3529 2164.78489
1022.5198 2187.41494
1022.6866 2173.01772
1022.8534 2184.87546
1023.0202 2166.58710
1023.1870 2159.70593
1023.3538 2141.76572
1023.5205 2159.56257
1023.6873 2142.89210
1023.8540 2147.60243
1024.0207 2138.71425
1024.1874 2157.73988
1024.3541 2142.56443
1024.5207 2146.63988
1024.6874 2127.77809
1024.8540 2148.68785
1025.0206 2110.75947
1025.1872 2121.55227
1025.3538 2124.50134
1025.5204 2120.18013
1025.6870 2107.95375
1025.8535 2107.78992
1026.0201 2108.24047
1026.1866 2109.71501
1026.3531 2101.58457
1026.5196 2103.10007
1026.6860 2116.26851
1026.8525 2108.01519
1027.0189 2076.68127
1027.1853 2091.93864
1027.3518 2080.14234
1027.5181 2087.49455
1027.6845 2093.39270
1027.8509 2077.09087
1028.0172 2071.11080
1028.1836 2070.43497
1028.3499 2066.05231
1028.5162 2062.03830
1028.6825 2053.45731
1028.8488 2054.31745
1029.0150 2042.99219
1029.1813 2043.54514
1029.3475 2029.68039
1029.5137 2041.37429
1029.6799 2036.25437
1029.8461 2033.48961
1030.0123 2035.86525
1030.1784 2039.16248
1030.3446 2042.19348
1030.5107 2037.42171
1030.6768 2031.66692
1030.8429 2029.12744
1031.0090 2028.63592
1031.1750 2043.83185
1031.3411 2028.49257
1031.5071 2039.92023
1031.6732 2023.72080
1031.8392 2013.33760
1032.0051 2012.80513
1032.1711 2013.82911
1032.3371 1993.67710
1032.5030 2002.72912
1032.6690 1999.22709
1032.8349 2014.64830
1033.0008 1993.30846
1033.1667 1997.34296
1033.3325 1988.37286
1033.4984 1993.39038
1033.6642 1989.23301
1033.8300 1998.65366
1033.9959 1987.08264
1034.1616 1993.71806
1034.3274 1985.34187
1034.4932 1986.46825
1034.6589 1969.01955
1034.8247 1984.76843
1034.9904 1977.78486
1035.1561 1979.05460
1035.3218 1975.94169
1035.4875 1971.00608
1035.6531 1956.77270
1035.8188 1972.66494
1035.9844 1958.51347
1036.1500 1960.88912
1036.3156 1950.13728
1036.4812 1952.24669
1036.6468 1943.15371
1036.8123 1937.84947
1036.9779 1939.38545
1037.1434 1953.96698
1037.3089 1944.68969
1037.4744 1953.22972
1037.6399 1942.19116
1037.8053 1944.13673
1037.9708 1944.15721
1038.1362 1945.57031
1038.3016 1940.36847
1038.4670 1941.88397
1038.6324 1940.83950
1038.7978 1900.16685
1038.9632 1934.98231
1039.1285 1919.88878
1039.2938 1909.83326
1039.4592 1914.33879
1039.6245 1910.26333
1039.7897 1920.33934
1039.9550 1905.30725
1040.1203 1916.87827
1040.2855 1902.07146
1040.4507 1913.23289
1040.6159 1909.07551
1040.7811 1908.21536
1040.9463 1902.48105
1041.1115 1894.69877
1041.2766 1884.97092
1041.4418 1891.03290
1041.6069 1880.48587
1041.7720 1885.60579
1041.9371 1869.46779
1042.1021 1870.92185
1042.2672 1871.06521
1042.4323 1883.20966
1042.5973 1866.90783
1042.7623 1871.33145
1042.9273 1864.88034
1043.0923 1866.27296
1043.2572 1864.77795
1043.4222 1848.88571
1043.5871 1837.70380
1043.7521 1864.42979
1043.9170 1878.82701
1044.0819 1853.49364
1044.2467 1839.34217
1044.4116 1845.40416
1044.5765 1837.66284
1044.7413 1838.50251
1044.9061 1834.24273
1045.0709 1841.14439
1045.2357 1830.31063
1045.4005 1835.14384
1045.5652 1827.77115
1045.7300 1814.52079
1045.8947 1809.01176
1046.0594 1811.79699
1046.2241 1803.27744
1046.3888 1815.44238
1046.5535 1814.60271
1046.7181 1815.46286
1046.8828 1811.44884
1047.0474 1798.56712
1047.2120 1791.09203
1047.3766 1799.75494
1047.5412 1794.65550
1047.7057 1789.28982
1047.8703 1798.34184
1048.0348 1796.49867
1048.1993 1787.36473
1048.3639 1790.58004
1048.5283 1779.99204
1048.6928 1777.61640
1048.8573 1772.04592
1049.0217 1768.07286
1049.1861 1748.76052
1049.3506 1773.72525
1049.5150 1760.04482
1049.6793 1768.70773
1049.8437 1758.22213
1050.0081 1772.82415
1050.1724 1749.76402
1050.3367 1753.92140
1050.5010 1744.07067
1050.6653 1740.93727
1050.8296 1744.52122
1050.9939 1754.72010
1051.1581 1738.19300
1051.3224 1740.79392
1051.4866 1729.77585
1051.6508 1741.03967
1051.8150 1734.99817
1051.9791 1731.61902
1052.1433 1720.12991
1052.3074 1735.26440
1052.4716 1716.32069
1052.6357 1722.64891
1052.7998 1722.15740
1052.9639 1712.98250
1053.1279 1714.27272
1053.2920 1713.04394
1053.4560 1705.87605
1053.6201 1724.14393
1053.7841 1703.60280
1053.9481 1707.92402
1054.1120 1703.41849
1054.2760 1707.20723
1054.4399 1694.12071
1054.6039 1697.11074
1054.7678 1691.99082
1054.9317 1687.64913
1055.0956 1692.66665
1055.2595 1691.27403
1055.4233 1687.01426
1055.5872 1666.00210
1055.7510 1663.25782
1055.9148 1666.71889
1056.0786 1662.35671
1056.2424 1680.62460
1056.4062 1661.94712
1056.5699 1668.35726
1056.7336 1657.60543
1056.8974 1653.26373
1057.0611 1649.86410
1057.2248 1655.92609
1057.3885 1648.16429
1057.5521 1639.58330
1057.7158 1640.19769
1057.8794 1646.50544
1058.0430 1650.74473
1058.2066 1638.88699
1058.3702 1636.59327
1058.5338 1646.40304
1058.6973 1631.59622
1058.8609 1638.06780
1059.0244 1620.98775
1059.1879 1630.69512
1059.3514 1624.69457
1059.5149 1630.44936
1059.6784 1616.07262
1059.8418 1622.72852
1060.0053 1607.55307
1060.1687 1616.85085
1060.3321 1606.40621
1060.4955 1602.51507
1060.6589 1603.29330
1060.8222 1610.27687
1060.9856 1598.23481
1061.1489 1606.83628
1061.3122 1595.65437
1061.4755 1612.01764
1061.6388 1603.84625
1061.8021 1607.88075
1061.9654 1594.38463
1062.1286 1583.59184
1062.2918 1590.28869
1062.4550 1588.85512
1062.6182 1581.58483
1062.7814 1584.88206
1062.9446 1581.58483
1063.1077 1578.63575
1063.2709 1569.15366
1063.4340 1571.11971
1063.5971 1560.87986
1063.7602 1573.96638
1063.9233 1566.30698
1064.0863 1573.78207
1064.2494 1572.22561
1064.4124 1558.74998
1064.5754 1562.00625
1064.7384 1563.99277
1064.9014 1551.56160
1065.0644 1553.91677
1065.2274 1547.07655
1065.3903 1552.27839
1065.5532 1546.25737
1065.7162 1549.59555
1065.8790 1538.70036
1066.0419 1549.43172
1066.2048 1534.01051
1066.3677 1547.28135
1066.5305 1530.20129
1066.6933 1525.36808
1066.8561 1530.79520
1067.0189 1525.63432
1067.1817 1511.54430
1067.3445 1517.11477
1067.5072 1503.94633
1067.6699 1519.40850
1067.8327 1508.51330
1067.9954 1513.46939
1068.1580 1504.00777
1068.3207 1505.33895
1068.4834 1495.03767
1068.6460 1502.81995
1068.8086 1492.70298
1068.9713 1486.98915
1069.1339 1491.24892
1069.2964 1491.53564
1069.4590 1484.69542
1069.6216 1488.01313
1069.7841 1477.32274
1069.9466 1481.66443
1070.1091 1473.59543
1070.2716 1477.95761
1070.4341 1480.49709
1070.5966 1471.50651
1070.7590 1464.50245
1070.9214 1474.04599
1071.0839 1468.98750
1071.2463 1478.65392
1071.4086 1459.71021
1071.5710 1453.19767
1071.7334 1453.40246
1071.8957 1459.77165
1072.0580 1454.79508
1072.2204 1457.53936
1072.3827 1450.47387
1072.5449 1447.21760
1072.7072 1439.82443
1072.8695 1444.14564
1073.0317 1437.87886
1073.1939 1439.08716
1073.3561 1439.59915
1073.5183 1448.11870
1073.6805 1431.26392
1073.8427 1436.79344
1074.0048 1418.01356
1074.1669 1437.36687
1074.3291 1424.11651
1074.4912 1424.50562
1074.6532 1416.10895
1074.8153 1422.49861
1074.9774 1413.61043
1075.1394 1416.49807
1075.3014 1420.88072
1075.4635 1417.60397
1075.6255 1396.73517
1075.7874 1419.77482
1075.9494 1399.54088
1076.1114 1405.04992
1076.2733 1399.21321
1076.4352 1403.41155
1076.5971 1388.05178
1076.7590 1396.61229
1076.9209 1382.05123
1077.0828 1399.54088
1077.2446 1385.51230
1077.4064 1393.80657
1077.5683 1374.90382
1077.7301 1377.64810
1077.8918 1373.85936
1078.0536 1383.28001
1078.2154 1371.85235
1078.3771 1372.26194
1078.5388 1362.71841
1078.7006 1377.60714
1078.8623 1370.13205
1079.0239 1364.50014
1079.1856 1359.56453
1079.3473 1374.53519
1079.5089 1364.33630
1079.6705 1361.34627
1079.8321 1359.70789
1079.9937 1359.15494
1080.1553 1346.27322
1080.3169 1353.85070
1080.4784 1349.20181
1080.6399 1355.09996
1080.8014 1343.54942
1080.9629 1351.65937
1081.1244 1347.13336
1081.2859 1342.83263
1081.4474 1325.91641
1081.6088 1347.17432
1081.7702 1336.85256
1081.9316 1340.37507
1082.0930 1334.45644
1082.2544 1333.18670
1082.4158 1320.22305
1082.5771 1337.20072
1082.7385 1323.95036
1082.8998 1330.48338
1083.0611 1313.52620
1083.2224 1323.35645
1083.3837 1319.83394
1083.5449 1320.20258
1083.7062 1311.43727
1083.8674 1310.02417
1084.0286 1308.16052
1084.1898 1319.26051
1084.3510 1297.71588
1084.5122 1305.92823
1084.6734 1289.54448
1084.8345 1305.06809
1084.9956 1296.50758
1085.1567 1297.12197
1085.3178 1287.14836
1085.4789 1298.20739
1085.6400 1285.03895
1085.8010 1294.62345
1085.9621 1285.10039
1086.1231 1296.50758
1086.2841 1274.86055
1086.4451 1293.94762
1086.6061 1281.00445
1086.7670 1288.66386
1086.9280 1272.19819
1087.0889 1274.20520
1087.2498 1277.89154
1087.4107 1279.44800
1087.5716 1271.15372
1087.7325 1268.96240
1087.8933 1260.68860
1088.0542 1294.43913
1088.2150 1265.23509
1088.3758 1269.76110
1088.5366 1257.00226
1088.6974 1273.05833
1088.8582 1260.85244
1089.0189 1279.07936
1089.1796 1255.17957
1089.3404 1272.07531
1089.5011 1256.71554
1089.6618 1279.75519
1089.8224 1261.07772
1089.9831 1270.92845
1090.1438 1263.28952
1090.3044 1275.14726
1090.4650 1256.03971
1090.6256 1265.84948
1090.7862 1259.91038
1090.9468 1271.33804
1091.1073 1249.87533
1091.2679 1249.60909
1091.4284 1262.14266
1091.5889 1265.84948
1091.7494 1256.85890
1091.9099 1264.27255
1092.0703 1250.65356
1092.2308 1271.41996
1092.3912 1248.48271
1092.5516 1268.42993
1092.7121 1248.48271
1092.8724 1257.98528
1093.0328 1251.88234
1093.1932 1262.47034
1093.3535 1253.47975
1093.5139 1257.80097
1093.6742 1251.10411
1093.8345 1260.05373
1093.9948 1250.20300
1094.1550 1259.43934
1094.3153 1259.84894
1094.4755 1251.69802
1094.6358 1253.29544
1094.7960 1249.30190
1094.9562 1248.93326
1095.1163 1266.52531
1095.2765 1246.51666
1095.4367 1252.92680
1095.5968 1246.06611
1095.7569 1254.48326
1095.9170 1240.80283
1096.0771 1263.33048
1096.2372 1245.90227
1096.3973 1259.95133
1096.5573 1250.67404
1096.7173 1258.29248
1096.8773 1247.78640
1097.0374 1258.90687
1097.1973 1245.45172
1097.3573 1262.69561
1097.5173 1241.21242
1097.6772 1258.47680
1097.8371 1249.11758
1097.9970 1249.48621
1098.1569 1249.32238
1098.3168 1246.70098
1098.4767 1246.14802
1098.6365 1243.46519
1098.7964 1253.99175
1098.9562 1258.96831
1099.1160 1238.40670
1099.2758 1252.86536
1099.4356 1247.62256
1099.5953 1256.08067
1099.7551 1248.31887
1099.9148 1256.40835
1100.0745 1242.05209
1100.2342 1248.95374
1100.3939 1244.91924
1100.5536 1254.27846
1100.7132 1248.66703
1100.8729 1258.80447
1101.0325 1246.12755
1101.1921 1252.94728
1101.3517 1240.39323
1101.5113 1254.95429
1101.6709 1250.26444
1101.8304 1247.33585
1101.9899 1242.74840
1102.1495 1255.17957
1102.3090 1246.35282
1102.4685 1262.24506
1102.6279 1245.82035
1102.7874 1247.06961
1102.9468 1246.84433
1103.1063 1254.76997
1103.2657 1251.39082
1103.4251 1248.17551
1103.5845 1244.96020
1103.7438 1256.79746
1103.9032 1254.72901
1104.0625 1250.81739
1104.2219 1246.88529
1104.3812 1251.71850
1104.5405 1245.49267
1104.6997 1256.16259
1104.8590 1252.43529
1105.0183 1258.16960
1105.1775 1243.40375
1105.3367 1254.46278
1105.4959 1252.25097
1105.6551 1260.62716
1105.8143 1243.48567
1105.9735 1256.08067
1106.1326 1246.66002
1106.2917 1259.29598
1106.4508 1242.44120
1106.6099 1254.13510
1106.7690 1242.78936
1106.9281 1256.51075
1107.0872 1242.25688
1107.2462 1261.36443
1107.4052 1247.95024
1107.5642 1250.32588
1107.7232 1249.34286
1107.8822 1255.73252
1108.0412 1240.16796
1108.2001 1240.22940
1108.3591 1250.71500
1108.5180 1250.26444
1108.6769 1245.43124
1108.8358 1255.28197
1108.9947 1237.66943
1109.1535 1257.98528
1109.3124 1247.37681
1109.4712 1258.74303
1109.6300 1251.53418
1109.7888 1248.97422
1109.9476 1240.53659
1110.1064 1259.91038
1110.2651 1255.30245
1110.4239 1251.45226
1110.5826 1236.78881
1110.7413 1251.77994
1110.9000 1246.25042
1111.0587 1261.50779
1111.2173 1249.54765
1111.3760 1251.73898
1111.5346 1251.65706
1111.6932 1258.68159
1111.8518 1245.26740
1112.0104 1261.13916
1112.1690 1240.55707
1112.3276 1252.27145
1112.4861 1241.60153
1112.6446 1259.72606
1112.8032 1248.13455
1112.9617 1252.10761
1113.1201 1250.89931
1113.2786 1251.47274
1113.4371 1243.52662
1113.5955 1254.58566
1113.7539 1243.36279
1113.9123 1253.19304
1114.0707 1251.57514
1114.2291 1263.51480
1114.3875 1248.74895
1114.5458 1254.60614
1114.7042 1242.21592
1114.8625 1241.68345
1115.0208 1243.60854
1115.1791 1259.27550
1115.3374 1240.02460
1115.4956 1250.42828
1115.6539 1242.52312
1115.8121 1261.95834
1115.9703 1247.97072
1116.1285 1249.24046
1116.2867 1244.03862
1116.4449 1257.14562
1116.6030 1250.87883
1116.7612 1257.78049
1116.9193 1237.85375
1117.0774 1247.88880
1117.2355 1250.26444
1117.3936 1260.29949
1117.5516 1243.17847
1117.7097 1257.45281
1117.8677 1244.79637
1118.0257 1246.92625
1118.1837 1250.98123
1118.3417 1255.65060
1118.4997 1246.80337
1118.6577 1252.16905
1118.8156 1246.82385
1118.9735 1247.78640
1119.1315 1244.77589
1119.2894 1263.57624
1119.4472 1248.68751
1119.6051 1261.07772
1119.7630 1241.54010
1119.9208 1258.62015
1120.0786 1240.78235
1120.2364 1250.63308
1120.3942 1249.01518
1120.5520 1251.08363
1120.7098 1257.28897
1120.8675 1253.50023
1121.0253 1254.31942
1121.1830 1254.68805
1121.3407 1254.99525
1121.4984 1253.54119
1121.6560 1254.87237
