# Averages = 100
# wavelength [µm]	intensity
446.8250 14.33578
447.0374 36746.70328
447.2498 1231.30025
447.4621 1224.15284
447.6745 1233.86021
447.8868 1242.37976
448.0992 1235.90818
448.3115 1231.54601
448.5238 1253.56167
448.7360 1235.66242
448.9483 1240.53659
449.1606 1238.89822
449.3728 1259.82846
449.5850 1234.55652
449.7972 1236.15394
450.0094 1237.62848
450.2216 1256.49027
450.4337 1250.44876
450.6459 1687.54673
450.8580 2026.83371
451.0701 2049.89384
451.2822 2074.20323
451.4943 2059.33498
451.7064 2048.99273
451.9184 2039.57208
452.1305 2108.89582
452.3425 2202.38559
452.5545 2142.19579
452.7665 2121.67515
452.9785 2251.39349
453.1905 2283.83331
453.4024 2210.63891
453.6143 2306.81152
453.8263 2291.28792
454.0382 2413.85885
454.2501 2260.30215
454.4619 2255.36655
454.6738 2387.09190
454.8856 2451.09092
455.0975 2307.56927
455.3093 2294.29843
455.5211 2388.01348
455.7329 2335.23733
455.9446 2377.69172
456.1564 2388.62787
456.3681 2451.04996
456.5798 2511.07592
456.7916 2448.05993
457.0033 2438.18872
457.2149 2408.10405
457.4266 2431.73761
457.6382 2503.35508
457.8499 2466.94220
458.0615 2582.30428
458.2731 2490.00232
458.4847 2577.10244
458.6963 2603.70555
458.9078 2630.18579
459.1194 2772.82681
459.3309 2799.45040
459.5424 2645.03356
459.7539 2537.88383
459.9654 2601.57566
460.1769 2667.09018
460.3883 2658.91879
460.5998 2512.57094
460.8112 2487.17613
461.0226 2567.39506
461.2340 2676.16268
461.4454 2607.82197
461.6567 2566.76019
461.8681 2562.70522
462.0794 2519.96411
462.2907 2624.10332
462.5020 2706.82078
462.7133 2803.48490
462.9246 2875.36860
463.1359 2707.20989
463.3471 2476.58813
463.5583 2527.88975
463.7696 2871.72322
463.9808 2736.41393
464.1919 2625.80313
464.4031 2633.91309
464.6143 2784.07016
464.8254 2619.16771
465.0365 2586.33878
465.2476 2702.35620
465.4587 2762.83272
465.6698 2592.68748
465.8809 2555.49637
466.0919 2561.49691
466.3030 2756.36114
466.5140 2716.91726
466.7250 2606.16311
466.9360 2661.19203
467.1469 2606.20407
467.3579 2494.15970
467.5688 2501.28663
467.7798 2612.96237
467.9907 2779.46223
468.2016 2604.77049
468.4125 2595.98471
468.6233 2487.05325
468.8342 2512.87814
469.0450 2767.29729
469.2559 2753.28919
469.4667 2740.07979
469.6775 2524.73587
469.8882 2546.69010
470.0990 2606.49079
470.3098 2765.63844
470.5205 2631.88560
470.7312 2771.47515
470.9419 2865.59979
471.1526 2706.34974
471.3633 2578.94561
471.5739 2633.81069
471.7846 2612.30702
471.9952 2448.28520
472.2058 2515.04898
472.4164 2497.29309
472.6270 2536.20450
472.8376 2579.78528
473.0481 2726.17408
473.2587 2767.39969
473.4692 2709.52410
473.6797 2631.45553
473.8902 2561.27164
474.1007 2492.15269
474.3111 2475.70750
474.5216 2417.99574
474.7320 2541.24250
474.9424 2671.43188
475.1528 2734.95987
475.3632 2566.96499
475.5736 2569.21776
475.7840 2513.10341
475.9943 2538.78494
476.2046 2579.60096
476.4149 2595.80039
476.6252 2681.61028
476.8355 2828.81827
477.0458 2841.49520
477.2561 2880.16085
477.4663 2750.52443
477.6765 2692.09588
477.8867 2652.09905
478.0969 2670.63317
478.3071 2675.75309
478.5173 2622.66974
478.7274 2708.68443
478.9375 2849.09317
479.1477 2863.01935
479.3578 2852.39040
479.5679 2940.22778
479.7779 2802.25612
479.9880 2751.54841
480.1980 2821.87566
480.4081 2894.35327
480.6181 2821.91662
480.8281 2719.02667
481.0381 2839.91827
481.2480 2885.64941
481.4580 2805.75815
481.6679 2810.77567
481.8778 2756.50450
482.0877 2832.36126
482.2976 2864.35053
482.5075 2909.26249
482.7174 2878.25624
482.9272 2883.10993
483.1371 2822.73581
483.3469 2849.97379
483.5567 2944.05748
483.7665 2953.12998
483.9762 2948.23533
484.1860 2923.10676
484.3957 2955.30083
484.6055 2899.67799
484.8152 2936.29567
485.0249 2984.09527
485.2346 2968.79694
485.4442 2992.53290
485.6539 3038.18212
485.8635 3041.90942
486.0732 2971.56170
486.2828 2999.65983
486.4924 3012.39819
486.7019 2997.73474
486.9115 3029.51921
487.1210 3075.80331
487.3306 3095.01325
487.5401 3132.83924
487.7496 3121.59589
487.9591 3213.22201
488.1686 3191.41114
488.3780 3149.46874
488.5875 3172.40599
488.7969 3195.81428
489.0063 3177.36208
489.2157 3235.11480
489.4251 3226.53381
489.6345 3238.61682
489.8438 3238.37107
490.0531 3226.98436
490.2625 3250.80224
490.4718 3236.95797
490.6811 3286.78505
490.8903 3345.62319
491.0996 3349.65769
491.3089 3341.77301
491.5181 3377.98110
491.7273 3387.29935
491.9365 3392.27592
492.1457 3441.48861
492.3549 3437.65890
492.5640 3425.92404
492.7732 3474.11275
492.9823 3464.79449
493.1914 3547.57339
493.4005 3540.91749
493.6096 3514.70349
493.8187 3509.37877
494.0277 3579.76746
494.2368 3588.20509
494.4458 3621.21834
494.6548 3650.56574
494.8638 3680.13840
495.0728 3646.71555
495.2817 3702.93230
495.4907 3683.31276
495.6996 3739.05847
495.9085 3728.71622
496.1174 3784.50289
496.3263 3773.73058
496.5352 3805.24882
496.7440 3829.31245
496.9529 3854.21575
497.1617 3875.67846
497.3705 3861.64988
497.5793 3939.71844
497.7881 3913.40205
497.9969 3973.63281
498.2056 3987.98907
498.4144 4012.17558
498.6231 4035.23571
498.8318 4077.23955
499.0405 4088.36002
499.2492 4043.61190
499.4578 4124.67050
499.6665 4124.03563
499.8751 4210.84903
500.0837 4235.64993
500.2923 4238.90620
500.5009 4238.45565
500.7095 4286.02996
500.9180 4302.67995
501.1266 4356.70536
501.3351 4368.60406
501.5436 4413.55697
501.7521 4402.17027
501.9606 4447.92189
502.1691 4460.49642
502.3775 4476.04050
502.5860 4532.83067
502.7944 4546.77734
503.0028 4615.09758
503.2112 4642.64276
503.4196 4616.92027
503.6279 4731.34028
503.8363 4662.83573
504.0446 4794.99115
504.2529 4800.90978
504.4612 4853.89073
504.6695 4852.58003
504.8778 4884.81506
505.0860 4916.59954
505.2943 4932.59417
505.5025 5013.12030
505.7107 5030.46660
505.9189 5078.77818
506.1271 5123.48534
506.3353 5143.06392
506.5434 5123.89493
506.7516 5212.26479
506.9597 5216.42216
507.1678 5254.67822
507.3759 5294.73649
507.5840 5315.27761
507.7920 5360.64012
508.0001 5370.32701
508.2081 5486.03725
508.4161 5467.50313
508.6241 5529.39275
508.8321 5542.27447
509.0401 5596.52516
509.2480 5638.73380
509.4560 5628.63731
509.6639 5701.15589
509.8718 5729.17210
510.0797 5777.31984
510.2876 5772.67095
510.4955 5946.99405
510.7033 5951.23335
510.9112 6046.32054
511.1190 6028.60561
511.3268 6003.64087
511.5346 6106.96089
511.7424 6145.13503
511.9501 6206.81985
512.1579 6233.83256
512.3656 6308.48102
512.5733 6291.83103
512.7810 6406.39440
512.9887 6476.78309
513.1964 6529.53877
513.4040 6541.35555
513.6117 6589.19610
513.8193 6638.16303
514.0269 6669.61983
514.2345 6755.77787
514.4421 6768.94631
514.6497 6827.66158
514.8572 6909.66225
515.0647 6933.21389
515.2723 7004.60608
515.4798 7040.67081
515.6873 7125.39527
515.8947 7112.67739
516.1022 7176.57401
516.3097 7206.90443
516.5171 7354.01003
516.7245 7356.54951
516.9319 7402.89504
517.1393 7457.14573
517.3467 7541.29677
517.5540 7563.86538
517.7614 7653.58689
517.9687 7624.69005
518.1760 7701.81656
518.3833 7779.51649
518.5906 7794.89674
518.7978 7938.25455
519.0051 7916.95568
519.2123 8065.43341
519.4196 8009.27811
519.6268 8119.58170
519.8340 8182.92538
520.0411 8275.69836
520.2483 8347.33631
520.4554 8372.32153
520.6626 8469.94820
520.8697 8503.28913
521.0768 8656.88678
521.2839 8679.88547
521.4909 8743.84354
521.6980 8921.85298
521.9050 8959.39225
522.1121 9041.22908
522.3191 9100.49730
522.5261 9156.71404
522.7331 9242.48297
522.9400 9398.62011
523.1470 9410.74408
523.3539 9466.91986
523.5608 9517.66853
523.7677 9599.66920
523.9746 9642.14407
524.1815 9736.35063
524.3884 9827.36236
524.5952 9777.49432
524.8020 9994.43565
525.0089 9940.79935
525.2157 10057.63597
525.4225 10111.04700
525.6292 10169.63938
525.8360 10255.53119
526.0427 10379.69954
526.2494 10459.14024
526.4562 10551.66747
526.6629 10538.37615
526.8695 10617.34583
527.0762 10789.94864
527.2829 10782.45307
527.4895 11028.31172
527.6961 11113.44578
527.9027 11174.33189
528.1093 11181.97081
528.3159 11259.83459
528.5224 11299.15559
528.7290 11587.87822
528.9355 11528.20041
529.1420 11741.00484
529.3485 11655.82982
529.5550 11845.88132
529.7615 11870.10879
529.9680 12058.66528
530.1744 12109.22962
530.3808 12217.93581
530.5872 12182.66978
530.7936 12336.39032
531.0000 12407.55723
531.2064 12482.96344
531.4127 12572.17296
531.6191 12683.56198
531.8254 12708.75200
532.0317 12857.43453
532.2380 12893.78597
532.4443 13080.90888
532.6505 12929.35919
532.8568 13157.78963
533.0630 13362.54554
533.2692 13357.11842
533.4754 13456.46539
533.6816 13691.87940
533.8878 13666.17739
534.0939 13869.13109
534.3001 13852.41967
534.5062 13962.41607
534.7123 14036.57302
534.9184 14043.06508
535.1245 14083.90157
535.3306 14186.93488
535.5366 14377.78509
535.7426 14515.32667
535.9487 14709.49459
536.1547 14535.33532
536.3607 14720.18498
536.5666 14712.27982
536.7726 14888.03650
536.9785 14983.71760
537.1845 15176.88202
537.3904 15117.47044
537.5963 15321.89868
537.8022 15381.00306
538.0080 15593.19310
538.2139 15628.90968
538.4197 15774.17210
538.6256 15771.59166
538.8314 15885.62256
539.0372 15929.77677
539.2430 16191.44573
539.4487 15885.45872
539.6545 16313.62755
539.8602 16249.32133
540.0659 16380.96476
540.2716 16684.45325
540.4773 16639.31602
540.6830 16958.24619
540.8887 16951.28310
541.0943 16895.57835
541.2999 16936.64012
541.5056 17029.14687
541.7112 17161.52757
541.9167 17096.56600
542.1223 17343.24384
542.3279 17367.90138
542.5334 17490.45183
542.7389 17750.23667
542.9444 17847.10559
543.1499 17928.45091
543.3554 17852.92182
543.5609 18103.18360
543.7663 18278.79692
543.9718 18095.60612
544.1772 18378.18485
544.3826 18388.83428
544.5880 18736.43602
544.7934 18705.73697
544.9987 18764.18600
545.2041 19112.64788
545.4094 18954.36038
545.6147 19055.81675
545.8200 19315.13055
546.0253 19343.72019
546.2306 19550.23736
546.4358 19441.18303
546.6411 19678.46069
546.8463 19672.54206
547.0515 19960.89606
547.2567 19930.34036
547.4619 20075.47991
547.6670 20206.79566
547.8722 20262.80761
548.0773 20634.08386
548.2824 20521.24079
548.4876 20519.82769
548.6926 20774.73836
548.8977 20956.31127
549.1028 21166.51478
549.3078 21150.95022
549.5129 21234.42542
549.7179 21263.89569
549.9229 21398.22196
550.1279 21356.34100
550.3328 21504.16339
550.5378 21354.70263
550.7427 21603.91995
550.9476 21709.69753
551.1526 21405.98377
551.3575 21791.55484
551.5623 21810.47807
551.7672 21737.34511
551.9720 21972.24712
552.1769 21952.17703
552.3817 22235.84118
552.5865 21970.69067
552.7913 22159.47243
552.9961 22099.61030
553.2008 22261.39983
553.4056 22544.85919
553.6103 22428.39120
553.8150 22761.04277
554.0197 22782.38260
554.2244 22678.50963
554.4291 22594.31763
554.6337 22884.86296
554.8384 22911.69135
555.0430 22881.66813
555.2476 22810.07114
555.4522 22779.02393
555.6568 22895.98343
555.8613 23034.05748
556.0659 23212.98851
556.2704 23012.02134
556.4750 23255.44290
556.6795 23306.62164
556.8839 23112.67900
557.0884 23350.91921
557.2929 23370.78450
557.4973 23317.35300
557.7018 23285.52757
557.9062 23317.18916
558.1106 23373.63118
558.3150 23317.27108
558.5193 23502.75561
558.7237 23529.89120
558.9280 23378.50535
559.1323 23327.24469
559.3367 23349.52659
559.5410 23406.50108
559.7452 23097.60595
559.9495 23528.29378
560.1537 23461.48904
560.3580 23437.69164
560.5622 23676.25952
560.7664 23752.64876
560.9706 23621.33300
561.1748 23836.75883
561.3789 23837.06603
561.5831 23801.71809
561.7872 23817.44649
561.9913 23911.14106
562.1954 23822.87361
562.3995 23984.37642
562.6036 23917.46928
562.8076 23683.75509
563.0117 24014.13341
563.2157 23934.95894
563.4197 24124.68276
563.6237 24065.63982
563.8277 23806.96089
564.0316 23711.44363
564.2356 23911.55065
564.4395 23995.72217
564.6434 23967.91075
564.8473 24202.01406
565.0512 24118.33406
565.2551 24151.83883
565.4590 24267.79482
565.6628 24296.07727
565.8666 24362.16522
566.0705 24284.75200
566.2743 24140.84123
566.4780 24164.96631
566.6818 24173.91593
566.8856 24407.09765
567.0893 24163.81944
567.2930 24210.82033
567.4967 24124.62132
567.7004 24265.27582
567.9041 24370.50045
568.1078 24244.81661
568.3114 24299.47689
568.5151 24341.05066
568.7187 23842.12451
568.9223 24202.21886
569.1259 24195.41960
569.3295 24530.83592
569.5330 24454.24189
569.7366 24336.31985
569.9401 24490.32710
570.1436 24462.45425
570.3471 24716.70957
570.5506 24660.63618
570.7541 24512.67044
570.9575 24594.22056
571.1609 24426.18472
571.3644 24672.22769
571.5678 24642.63454
571.7712 24774.17557
571.9746 24732.41749
572.1779 24542.98038
572.3813 24388.39970
572.5846 24738.80715
572.7879 24630.73584
572.9912 24911.22564
573.1945 24825.49767
573.3978 24665.34651
573.6010 24749.21083
573.8043 24988.31118
574.0075 24478.44888
574.2107 24652.97678
574.4139 24488.64777
574.6171 24588.24049
574.8203 24258.25128
575.0234 24483.44593
575.2266 24141.82426
575.4297 24224.45980
575.6328 24259.84870
575.8359 24249.97749
576.0390 23706.15987
576.2420 23845.01215
576.4451 23547.66757
576.6481 23804.72860
576.8512 24069.73576
577.0542 23479.71596
577.2571 23753.59082
577.4601 23664.58610
577.6631 23416.35181
577.8660 23379.09926
578.0689 22990.78390
578.2719 23092.79323
578.4748 23138.99540
578.6776 22919.67843
578.8805 22838.23071
579.0834 22630.58716
579.2862 22812.89734
579.4890 22878.24802
579.6918 22963.50496
579.8946 22494.41772
580.0974 22593.53940
580.3002 22403.16023
580.5029 22181.79529
580.7057 22423.78327
580.9084 22037.86404
581.1111 22278.43893
581.3138 22062.68543
581.5164 21900.01527
581.7191 21728.23165
581.9217 21691.38869
582.1244 21465.31342
582.3270 21359.65871
582.5296 21506.33423
582.7322 21564.57847
582.9347 21442.47857
583.1373 21158.44578
583.3398 21207.02360
583.5424 21062.19125
583.7449 20970.01218
583.9474 20856.88238
584.1498 20692.22570
584.3523 20859.95434
584.5548 20596.29884
584.7572 20576.29019
584.9596 20596.48316
585.1620 20774.77932
585.3644 20347.12248
585.5668 20264.83510
585.7691 20361.25347
585.9715 20183.32594
586.1738 20276.95907
586.3761 20092.80572
586.5784 20222.95414
586.7807 20141.15827
586.9830 20088.36163
587.1852 19950.90197
587.3875 19777.86909
587.5897 19948.19865
587.7919 19764.86449
587.9941 19567.56318
588.1963 19518.06377
588.3984 19419.51552
588.6006 19200.42382
588.8027 19489.78132
589.0048 19327.58220
589.2069 19238.29076
589.4090 19384.76149
589.6111 19389.38990
589.8131 19324.05969
590.0152 19417.69282
590.2172 19099.27464
590.4192 19350.72425
590.6212 19073.83887
590.8232 18865.70381
591.0252 19064.78685
591.2271 18995.15591
591.4291 18987.55795
591.6310 18857.08186
591.8329 18750.56700
592.0348 18813.58300
592.2367 18729.12477
592.4385 18861.01396
592.6404 18970.76460
592.8422 18940.43419
593.0440 19018.37988
593.2458 19069.66102
593.4476 19015.32840
593.6494 19025.65017
593.8512 19057.10697
594.0529 19024.48282
594.2546 18986.47252
594.4563 18878.87225
594.6580 18767.99522
594.8597 18740.20428
595.0614 18666.70268
595.2630 18804.63338
595.4647 18752.63545
595.6663 18634.52910
595.8679 18686.58846
596.0695 18803.32268
596.2711 18658.42889
596.4727 18675.54991
596.6742 18706.76095
596.8757 18758.26737
597.0773 18728.63326
597.2788 18510.01260
597.4802 18625.72283
597.6817 18692.71189
597.8832 18499.85467
598.0846 18504.15540
598.2860 18421.99090
598.4875 18251.12887
598.6889 18449.57704
598.8902 18355.06328
599.0916 18434.38111
599.2930 18273.04213
599.4943 18349.51328
599.6956 18350.08672
599.8969 18145.82231
600.0982 18035.47776
600.2995 17913.05018
600.5008 18162.71805
600.7020 17977.70456
600.9032 18021.16245
601.1045 17988.78407
601.3057 17852.65559
601.5068 17961.70992
601.7080 17977.17209
601.9092 17720.93024
602.1103 17917.45332
602.3115 17821.60838
602.5126 17736.78151
602.7137 17593.15747
602.9147 17591.02758
603.1158 17645.68786
603.3169 17607.24749
603.5179 17593.71042
603.7189 17370.80950
603.9199 17442.95944
604.1209 17291.22543
604.3219 17227.45169
604.5229 17304.41435
604.7238 17250.81901
604.9247 17138.93848
605.1257 17140.12630
605.3266 17109.93924
605.5275 16950.81207
605.7283 16961.62534
605.9292 16975.89968
606.1300 16615.58006
606.3309 16638.25108
606.5317 16696.76154
606.7325 16808.39632
606.9332 16743.96722
607.1340 16629.71105
607.3348 16480.08645
607.5355 16348.23822
607.7362 16429.03059
607.9369 16158.61680
608.1376 16236.03001
608.3383 16086.42590
608.5390 16121.87624
608.7396 15999.48962
608.9402 16110.53049
609.1409 16062.58754
609.3415 15800.89809
609.5421 15691.57752
609.7426 15682.70982
609.9432 15569.76434
610.1437 15312.94906
610.3443 15544.00089
610.5448 15383.54254
610.7453 15350.22209
610.9457 15225.35744
611.1462 15212.00468
611.3467 15040.99929
611.5471 15155.70602
611.7475 14940.91506
611.9479 15126.27671
612.1483 14768.68088
612.3487 14898.33779
612.5491 14608.12013
612.7494 14753.64879
612.9497 14460.56399
613.1501 14545.71853
613.3504 14378.60428
613.5506 14580.32920
613.7509 14366.80798
613.9512 14113.47424
614.1514 14017.93650
614.3516 14181.56920
614.5519 14053.12060
614.7521 14034.17689
614.9522 13903.49601
615.1524 13732.75685
615.3526 13741.01017
615.5527 13832.43149
615.7528 13571.25404
615.9529 13534.06292
616.1530 13519.76810
616.3531 13570.88540
616.5532 13526.26016
616.7532 13253.59360
616.9532 13191.54015
617.1533 13029.83254
617.3533 13051.39765
617.5532 12921.31067
617.7532 12887.00720
617.9532 12703.48872
618.1531 12887.84686
618.3530 12561.52352
618.5530 12561.38017
618.7528 12561.23681
618.9527 12490.72524
619.1526 12352.56927
619.3524 12246.34113
619.5523 12230.22362
619.7521 12144.39325
619.9519 12116.56135
620.1517 12028.80589
620.3515 12013.36421
620.5512 12012.72934
620.7510 11923.60174
620.9507 11758.02346
621.1504 11652.88075
621.3501 11663.65306
621.5498 11634.79718
621.7495 11535.18398
621.9492 11445.83111
622.1488 11257.66374
622.3484 11149.44907
622.5480 11090.79525
622.7476 11275.23531
622.9472 11085.53197
623.1468 10996.89588
623.3463 11218.79329
623.5459 11095.09598
623.7454 10934.92434
623.9449 10942.60423
624.1444 10934.59667
624.3439 10905.96607
624.5433 10753.69959
624.7428 10678.58010
624.9422 10619.06612
625.1416 10637.92792
625.3410 10521.23466
625.5404 10507.88190
625.7398 10401.20321
625.9391 10447.36442
626.1385 10310.39627
626.3378 10295.95809
626.5371 10373.43275
626.7364 10178.85524
626.9357 10190.16003
627.1350 10159.21522
627.3342 10081.22857
627.5335 10030.56182
627.7327 10036.58285
627.9319 10044.05794
628.1311 10140.41487
628.3303 9931.44014
628.5294 9951.87886
628.7286 9966.89047
628.9277 10038.75370
629.1268 9932.52556
629.3259 9951.34639
629.5250 9913.35657
629.7241 9851.26216
629.9231 9679.82670
630.1222 9840.61272
630.3212 9795.74173
630.5202 9644.54019
630.7192 9712.67611
630.9182 9672.61785
631.1171 9664.32357
631.3161 9615.60240
631.5150 9561.22883
631.7140 9637.63854
631.9129 9634.95570
632.1118 9697.82834
632.3106 9673.86711
632.5095 9670.83611
632.7083 9585.37438
632.9072 9589.75703
633.1060 9658.73262
633.3048 9522.56317
633.5036 9531.55376
633.7023 9534.15468
633.9011 9626.41567
634.0998 9691.35676
634.2986 9583.51072
634.4973 9692.60602
634.6960 9637.90478
634.8947 9616.87214
635.0933 9612.12085
635.2920 9684.74182
635.4906 9600.97990
635.6892 9701.08461
635.8878 9713.72058
636.0864 9798.56792
636.2850 9698.91376
636.4836 9709.78848
636.6821 9712.75803
636.8806 9800.24726
637.0792 9864.98355
637.2777 9842.72213
637.4761 9856.66880
637.6746 9852.65478
637.8731 10014.05520
638.0715 9886.83538
638.2699 10001.58307
638.4683 9993.49359
638.6667 9950.11761
638.8651 10009.85686
639.0635 10092.20568
639.2618 10082.94886
639.4602 10162.26669
639.6585 10122.12651
639.8568 10288.52397
640.0551 10256.67805
640.2534 10251.41477
640.4516 10363.43866
640.6499 10399.91299
640.8481 10556.19348
641.0463 10611.38624
641.2445 10735.86178
641.4427 10695.61920
641.6409 10752.34793
641.8390 10801.74494
642.0372 10823.45340
642.2353 10811.77998
642.4334 10831.07185
642.6315 10967.32321
642.8296 11023.58091
643.0277 10974.85973
643.2257 11174.57765
643.4237 11202.57338
643.6218 11165.11603
643.8198 11282.07553
644.0178 11435.95990
644.2157 11384.69924
644.4137 11441.28462
644.6116 11821.24426
644.8096 11870.74366
645.0075 11651.46765
645.2054 11891.46911
645.4033 11864.82503
645.6011 11911.23201
645.7990 11936.56538
645.9968 12069.51951
646.1947 12201.83877
646.3925 12295.73814
646.5903 12234.97491
646.7881 12409.91240
646.9858 12403.60465
647.1836 12441.69687
647.3813 12472.35496
647.5790 12564.16540
647.7767 12896.12066
647.9744 12770.27298
648.1721 12870.45961
648.3698 13103.35462
648.5674 12984.32667
648.7650 13191.04864
648.9627 13181.44366
649.1603 13647.54087
649.3578 13684.30191
649.5554 13740.04762
649.7530 13868.76246
649.9505 13674.02111
650.1480 13967.76127
650.3455 14041.81582
650.5430 13854.57003
650.7405 14046.38279
650.9380 14162.05206
651.1354 14319.92997
651.3329 14359.35337
651.5303 14625.11828
651.7277 14707.93813
651.9251 14781.72645
652.1225 14793.09267
652.3198 14802.14469
652.5172 15025.12753
652.7145 15242.08934
652.9118 15299.08431
653.1091 15387.76136
653.3064 15483.83157
653.5037 15517.93025
653.7009 15477.07328
653.8982 15810.29827
654.0954 16074.89583
654.2926 16152.55481
654.4898 16247.62152
654.6870 16308.11851
654.8841 16522.56132
655.0813 16447.72854
655.2784 16792.13545
655.4755 16846.40662
655.6726 17035.04502
655.8697 16879.21508
656.0668 17219.07549
656.2639 17175.02369
656.4609 17141.08884
656.6579 17407.09950
656.8550 17559.03831
657.0520 17673.76552
657.2490 17540.27891
657.4459 17953.76380
657.6429 18099.72254
657.8398 18080.98362
658.0367 18317.70833
658.2337 18334.13304
658.4305 18606.04185
658.6274 18714.68659
658.8243 18837.54424
659.0211 18890.32039
659.2180 18976.99043
659.4148 19150.41242
659.6116 19308.43369
659.8084 19487.22136
660.0052 19585.54434
660.2019 19630.31294
660.3987 19626.42180
660.5954 19874.06218
660.7921 19939.67910
660.9888 19952.25363
661.1855 20172.81986
661.3822 20285.25335
661.5788 20448.94749
661.7755 20508.07235
661.9721 20545.89833
662.1687 20746.82454
662.3653 20739.10370
662.5619 20945.90759
662.7584 20992.62175
662.9550 21234.44590
663.1515 21584.42328
663.3480 21536.82849
663.5445 21717.09070
663.7410 21606.80758
663.9375 21911.97540
664.1340 22001.63548
664.3304 22152.89845
664.5268 22113.82320
664.7233 22512.46032
664.9197 22577.97484
665.1160 22824.85748
665.3124 22661.32717
665.5088 22985.33631
665.7051 23037.90766
665.9014 23027.89310
666.0977 23070.63420
666.2940 23218.23131
666.4903 23470.31579
666.6866 23727.23347
666.8828 23537.24340
667.0791 23745.80854
667.2753 24203.55004
667.4715 24306.43999
667.6677 24632.14894
667.8639 24729.52985
668.0600 24387.99010
668.2562 24624.55097
668.4523 24741.26471
668.6484 24992.61192
668.8445 24699.07656
669.0406 25293.92956
669.2367 25284.30411
669.4327 25624.22596
669.6287 25619.24940
669.8248 25621.72744
670.0208 25783.68081
670.2168 25781.69428
670.4128 26073.81654
670.6087 26143.71371
670.8047 26375.23658
671.0006 26608.37734
671.1965 26155.71481
671.3924 26477.14350
671.5883 26431.71956
671.7842 26768.67186
671.9801 26423.75296
672.1759 26866.81052
672.3717 26744.89494
672.5675 27584.91028
672.7633 27305.05535
672.9591 27890.56962
673.1549 28031.49035
673.3506 28092.00782
673.5464 27897.71703
673.7421 28104.93051
673.9378 28239.72781
674.1335 28051.51948
674.3292 28456.44386
674.5249 28341.83953
674.7205 27968.06475
674.9161 28356.52347
675.1118 28275.99734
675.3074 28420.27673
675.5030 28507.80692
675.6985 28883.54775
675.8941 28970.38162
676.0896 29064.34243
676.2852 29123.34441
676.4807 28999.19654
676.6762 29240.50870
676.8717 29577.01044
677.0671 29712.19686
677.2626 30012.81819
677.4580 29938.55885
677.6534 30011.48701
677.8489 29904.50113
678.0442 29993.48537
678.2396 29833.92812
678.4350 30249.29715
678.6303 30112.49283
678.8257 30393.24887
679.0210 30571.40167
679.2163 30515.57404
679.4116 30605.56179
679.6069 30405.31140
679.8021 30121.56533
679.9974 30507.91464
680.1926 30704.70396
680.3878 30765.77438
680.5830 30935.73531
680.7782 30890.63904
680.9734 30861.59884
681.1685 31031.39593
681.3636 30974.83103
681.5588 31350.67426
681.7539 31249.32029
681.9490 31345.59530
682.1441 31327.08166
682.3391 31204.30593
682.5342 31765.01930
682.7292 31829.65319
682.9242 32134.57526
683.1192 32145.44997
683.3142 32318.70813
683.5092 32441.93441
683.7041 32668.19400
683.8991 32471.38420
684.0940 32401.77374
684.2889 32182.08813
684.4838 32484.47072
684.6787 32496.06222
684.8736 32130.72508
685.0684 32664.65101
685.2633 32676.46779
685.4581 32927.48732
685.6529 33260.89663
685.8477 33442.63338
686.0425 33317.48201
686.2372 33167.65261
686.4320 33029.39424
686.6267 33078.58645
686.8214 33351.78548
687.0161 33224.97526
687.2108 33558.11834
687.4055 33671.12525
687.6002 33736.76265
687.7948 33809.99801
687.9894 34000.93014
688.1841 33953.21247
688.3787 34029.62218
688.5732 34032.55078
688.7678 34056.55297
688.9624 33880.96013
689.1569 34172.73424
689.3514 33827.97918
689.5459 33714.31691
689.7404 34220.69767
689.9349 34034.70114
690.1294 34278.92142
690.3238 34364.17836
690.5182 34423.48753
690.7127 34420.41558
690.9071 34530.61678
691.1015 34434.56704
691.2958 34863.14546
691.4902 34727.50849
691.6845 35471.90417
691.8789 34990.34480
692.0732 35009.98482
692.2675 34834.02335
692.4618 35291.12997
692.6560 35153.58839
692.8503 35665.08907
693.0445 35460.61987
693.2387 35007.13815
693.4329 35502.56227
693.6271 35510.69270
693.8213 35626.09574
694.0155 35747.99084
694.2096 35587.10242
694.4038 35360.33084
694.5979 35505.16319
694.7920 35557.24303
694.9861 35397.13283
695.1801 35467.25528
695.3742 35372.35241
695.5682 35469.65141
695.7623 35620.46383
695.9563 35579.09486
696.1503 35928.25305
696.3443 35375.48580
696.5382 36041.73100
696.7322 35848.15699
696.9261 36160.00119
697.1201 35672.60511
697.3140 35895.50603
697.5079 36253.16329
697.7017 35746.84398
697.8956 35725.11503
698.0894 35862.20606
698.2833 36101.73648
698.4771 36299.14019
698.6709 36658.35391
698.8647 36352.69457
699.0585 36799.45896
699.2522 36178.76059
699.4460 36197.35614
699.6397 36413.78548
699.8334 36043.51273
700.0271 36538.83445
700.2208 36781.90786
700.4144 36991.55843
700.6081 37088.77550
700.8017 36604.30801
700.9954 36919.12177
701.1890 36610.73864
701.3826 36463.55112
701.5761 36486.07878
701.7697 36575.24734
701.9632 36355.68461
702.1568 36918.09779
702.3503 36832.92277
702.5438 36767.53112
702.7373 36002.06184
702.9308 36812.03348
703.1242 36860.71370
703.3177 36737.99941
703.5111 36912.83451
703.7045 37002.94513
703.8979 37359.02546
704.0913 37648.56728
704.2847 37619.26085
704.4780 37503.46869
704.6713 36985.33260
704.8647 37090.39340
705.0580 36948.40772
705.2513 36828.66299
705.4445 36983.32559
705.6378 37003.37520
705.8311 36460.60205
706.0243 36465.96773
706.2175 37066.75984
706.4107 37076.28289
706.6039 37436.74587
706.7971 37307.27329
706.9902 37365.98855
707.1834 37476.64030
707.3765 37084.29045
707.5696 36911.60572
707.7627 37132.64299
707.9558 37146.69206
708.1489 36818.46411
708.3419 36559.70325
708.5349 36800.91301
708.7280 36672.25962
708.9210 37366.82822
709.1140 37381.10256
709.3069 37025.45231
709.4999 36761.81729
709.6929 37242.49604
709.8858 36837.65357
710.0787 37153.36844
710.2716 36627.18383
710.4645 37079.49820
710.6574 37015.33534
710.8502 37271.92535
711.0431 36643.75189
711.2359 36756.20586
711.4287 36657.12513
711.6215 36924.22121
711.8143 36746.60088
712.0071 36712.64556
712.1998 37051.54343
712.3925 36917.40148
712.5853 37275.46833
712.7780 37207.16857
712.9707 37026.29198
713.1633 37032.55876
713.3560 37379.64850
713.5487 37179.43908
713.7413 37394.10716
713.9339 37409.75364
714.1265 37179.48004
714.3191 37193.16047
714.5117 36867.92255
714.7042 37375.49113
714.8968 37632.81840
715.0893 38191.81147
715.2818 37872.14403
715.4743 37910.03145
715.6668 37483.46004
715.8592 37543.11737
716.0517 37448.58313
716.2441 37710.00634
716.4366 37287.10080
716.6290 37518.23455
716.8214 37599.49795
717.0137 37689.54713
717.2061 37716.10929
717.3984 37679.16393
717.5908 37349.27713
717.7831 37262.79141
717.9754 37632.16305
718.1677 36825.91871
718.3600 37163.91548
718.5522 37103.07032
718.7445 37193.79534
718.9367 36955.08410
719.1289 37231.82612
719.3211 36931.79870
719.5133 36899.35887
719.7054 36953.36381
719.8976 37235.38958
720.0897 37073.23142
720.2818 37243.43810
720.4740 37351.28414
720.6660 37151.34095
720.8581 37183.73981
721.0502 37137.90627
721.2422 37213.16912
721.4343 37449.70951
721.6263 37540.45501
721.8183 37596.73319
722.0103 37646.84699
722.2022 37354.88856
722.3942 37728.23326
722.5861 37153.59371
722.7781 37635.13260
722.9700 37734.99156
723.1619 37500.11003
723.3538 37178.82469
723.5456 37029.81448
723.7375 37350.73118
723.9293 37342.43691
724.1211 37057.23678
724.3129 36800.48294
724.5047 36776.43979
724.6965 37092.56424
724.8883 37118.73728
725.0800 37357.61236
725.2718 37093.67015
725.4635 37222.24163
725.6552 36898.08913
725.8469 37313.02808
726.0385 37596.01640
726.2302 37280.77257
726.4218 36616.80062
726.6135 36753.52302
726.8051 36684.17880
726.9967 36754.71084
727.1882 37090.65963
727.3798 37566.15702
727.5714 37241.67685
727.7629 37427.07946
727.9544 37320.78988
728.1459 36969.48132
728.3374 36958.01270
728.5289 37443.70897
728.7204 37032.64068
728.9118 37482.06742
729.1032 37736.67090
729.2946 37829.71012
729.4860 36868.59838
729.6774 37086.44082
729.8688 37170.98097
730.0602 37012.30435
730.2515 36939.62194
730.4428 37169.93650
730.6341 36967.92487
730.8254 36756.16490
731.0167 37416.12283
731.2080 37050.97000
731.3992 37234.81615
731.5905 37316.89874
731.7817 37101.96442
731.9729 36756.10346
732.1641 37139.19649
732.3553 36803.88257
732.5464 37270.96280
732.7376 37285.29858
732.9287 37264.90081
733.1198 37174.13484
733.3109 37218.16617
733.5020 37146.83542
733.6931 37327.48674
733.8841 36992.07042
734.0752 37208.60215
734.2662 36949.80034
734.4572 36879.02254
734.6482 36532.60863
734.8392 36631.95559
735.0302 36505.10441
735.2211 36720.16161
735.4120 36579.17944
735.6030 36995.40861
735.7939 36858.35854
735.9848 36839.90634
736.1756 36753.21582
736.3665 36520.87377
736.5574 36265.12343
736.7482 36763.39423
736.9390 36536.72505
737.1298 36832.88181
737.3206 36806.23773
737.5114 36951.02912
737.7021 36714.69353
737.8929 36662.47033
738.0836 36508.13540
738.2743 36770.97171
738.4650 36641.29433
738.6557 36191.39655
738.8463 36296.25255
739.0370 36288.40883
739.2276 36008.79966
739.4182 35852.41677
739.6088 36351.01524
739.7994 35911.02963
739.9900 36085.94664
740.1806 36220.98970
740.3711 36388.28827
740.5617 36526.62856
740.7522 36296.98982
740.9427 36140.13590
741.1332 36137.00250
741.3236 36135.54845
741.5141 36299.75458
741.7045 36609.75561
741.8949 36594.84640
742.0854 36118.12023
742.2758 36626.71279
742.4661 36240.54780
742.6565 36066.30662
742.8469 36163.03219
743.0372 36094.81435
743.2275 35546.94175
743.4178 35780.53306
743.6081 35992.78455
743.7984 35782.70391
743.9886 35797.36737
744.1789 35758.59932
744.3691 35673.52670
744.5593 35773.93860
744.7495 35454.96747
744.9397 35487.44826
745.1299 35409.54352
745.3200 35135.07475
745.5102 35396.92804
745.7003 35523.18531
745.8904 35484.15103
746.0805 35773.75429
746.2706 35681.63665
746.4607 35922.45730
746.6507 35993.95189
746.8408 35542.70245
747.0308 35819.64927
747.2208 35357.62752
747.4108 35513.58034
747.6007 35197.43540
747.7907 35689.78757
747.9806 35647.25126
748.1706 35616.34741
748.3605 35711.51652
748.5504 35504.44640
748.7403 35755.11777
748.9302 35402.66235
749.1200 35367.19153
749.3098 35588.88415
749.4997 35287.13643
749.6895 35149.14430
749.8793 35174.02712
750.0691 35780.12347
750.2588 35617.96530
750.4486 35294.95967
750.6383 35317.75357
750.8280 34791.09792
751.0177 34730.10941
751.2074 34800.51858
751.3971 34725.13285
751.5868 34853.37665
751.7764 34490.00556
751.9660 34231.03991
752.1557 34489.37069
752.3453 35142.05833
752.5348 35031.01746
752.7244 35136.52881
752.9140 35067.40987
753.1035 35213.36860
753.2930 35021.33057
753.4825 34901.11480
753.6720 34684.07108
753.8615 34868.79786
754.0510 34696.11313
754.2404 34719.37806
754.4299 34993.02764
754.6193 34823.08719
754.8087 34640.06023
754.9981 34755.13559
755.1875 34388.61062
755.3768 34229.56537
755.5662 34551.54702
755.7555 34514.94982
755.9448 34941.95130
756.1341 34575.32393
756.3234 34131.61102
756.5127 34380.23443
756.7019 34540.34463
756.8912 34629.20599
757.0804 34543.04795
757.2696 34389.67557
757.4588 34145.61913
757.6480 34010.37127
757.8371 33900.14960
758.0263 33806.84414
758.2154 33443.73928
758.4045 33212.44169
758.5936 33119.79158
758.7827 33654.37287
758.9718 33938.38517
759.1609 33807.43805
759.3499 33572.31076
759.5389 32887.55193
759.7280 33072.95454
759.9170 33424.85701
760.1059 33582.59156
760.2949 33558.22073
760.4839 33479.41490
760.6728 33604.81202
760.8617 33506.53000
761.0506 33078.44310
761.2395 33042.62412
761.4284 32936.41646
761.6173 32857.09863
761.8061 32974.30388
761.9950 33010.59389
762.1838 32909.52663
762.3726 33129.02792
762.5614 32627.52134
762.7502 33218.74943
762.9389 32890.35765
763.1277 32704.64784
763.3164 33017.45459
763.5051 32978.01071
763.6938 33081.06450
763.8825 32932.66868
764.0712 33398.43821
764.2598 33119.97590
764.4484 33388.73084
764.6371 33378.36812
764.8257 33020.91565
765.0143 33366.81758
765.2029 33111.92738
765.3914 33464.69000
765.5800 33683.31067
765.7685 33159.87033
765.9570 32979.81292
766.1455 32739.40187
766.3340 32642.88110
766.5225 32692.01187
766.7110 32583.92008
766.8994 32474.00560
767.0878 32366.22100
767.2762 32517.64781
767.4646 32319.48636
767.6530 32395.83463
767.8414 32559.81549
768.0298 32301.60759
768.2181 32512.28213
768.4064 32475.52110
768.5947 32380.53630
768.7830 32058.73898
768.9713 32117.98671
769.1596 31825.22958
769.3478 31755.66008
769.5360 31862.64597
769.7243 31557.92870
769.9125 31379.46870
770.1007 31263.18503
770.2888 31236.17233
770.4770 31104.52890
770.6651 31128.46965
770.8533 30969.87495
771.0414 30909.39843
771.2295 30968.23658
771.4176 31287.24867
771.6056 31503.41177
771.7937 31146.22554
771.9817 30808.69981
772.1698 31226.42400
772.3578 31086.65013
772.5458 30906.40840
772.7337 30685.20729
772.9217 30834.89333
773.1096 30791.18968
773.2976 31020.97177
773.4855 31221.69319
773.6734 30876.44662
773.8613 30997.97308
774.0492 30731.49139
774.2370 30750.98805
774.4249 31193.63602
774.6127 31417.74524
774.8005 31239.46956
774.9883 31078.11010
775.1761 31224.33507
775.3639 30662.37244
775.5516 30895.96376
775.7394 30528.68104
775.9271 30404.67653
776.1148 30342.99172
776.3025 29618.05174
776.4902 29912.42677
776.6778 29850.92626
776.8655 30143.64244
777.0531 30583.01365
777.2407 30329.70040
777.4283 29916.82990
777.6159 30322.92162
777.8035 30141.47159
777.9911 29643.99950
778.1786 30149.64299
778.3661 29974.19350
778.5536 29994.12024
778.7411 30387.76031
778.9286 30605.31603
779.1161 30278.97221
779.3036 29688.05131
779.4910 29770.19534
779.6784 29722.72342
779.8658 29993.40345
780.0532 29721.08505
780.2406 29852.40080
780.4280 29261.29558
780.6153 29602.87629
780.8026 29700.89207
780.9900 29699.60185
781.1773 29353.55657
781.3646 29616.08569
781.5518 29311.38890
781.7391 29644.08142
781.9263 29203.68622
782.1136 29146.15878
782.3008 28875.45827
782.4880 29016.21516
782.6752 29036.38765
782.8623 28964.70875
783.0495 29129.57023
783.2366 28769.12773
783.4237 28857.82526
783.6108 29149.90656
783.7979 28911.74828
783.9850 29004.78750
784.1721 29248.22954
784.3591 28814.06017
784.5462 28842.54741
784.7332 28917.29827
784.9202 28915.47558
785.1072 28705.72262
785.2941 28740.90672
785.4811 28462.99736
785.6681 28551.55153
785.8550 28657.61583
786.0419 28559.39525
786.2288 28284.20969
786.4157 28073.14603
786.6025 28237.55696
786.7894 28274.99383
786.9762 28240.66987
787.1631 27903.88141
787.3499 28251.46267
787.5367 28332.66463
787.7234 27894.13308
787.9102 27967.32749
788.0970 28003.96565
788.2837 28170.52695
788.4704 27792.71767
788.6571 27631.03054
788.8438 27694.78380
789.0305 27529.22601
789.2171 27469.13861
789.4038 27250.96850
789.5904 27344.51971
789.7770 27395.90325
789.9636 27303.17122
790.1502 27605.49237
790.3368 27538.50331
790.5233 27396.04660
790.7099 27282.32290
790.8964 26876.72269
791.0829 26539.99567
791.2694 26573.29564
791.4559 26568.60579
791.6423 26511.69274
791.8288 26607.80391
792.0152 26894.31474
792.2016 26879.87656
792.3880 26962.90121
792.5744 26617.30649
792.7608 26264.89202
792.9471 26510.09532
793.1335 26833.22383
793.3198 26560.37295
793.5061 26633.48544
793.6924 26139.72017
793.8787 26193.64319
794.0650 26141.89102
794.2512 26306.22003
794.4375 26514.74421
794.6237 26673.31843
794.8099 26523.69383
794.9961 26067.61119
795.1823 26017.70220
795.3684 26152.72477
795.5546 25799.83928
795.7407 25974.83821
795.9268 25557.99465
796.1129 25708.78659
796.2990 26175.47771
796.4851 26572.74269
796.6712 26199.47990
796.8572 25818.59867
797.0432 25693.09915
797.2292 25969.24725
797.4152 25890.01134
797.6012 25305.93066
797.7872 25279.71666
797.9731 25442.75545
798.1591 25183.15493
798.3450 25120.83524
798.5309 25452.81098
798.7168 25557.78985
798.9027 25515.54026
799.0885 25378.87930
799.2744 25221.73866
799.4602 25533.95150
799.6460 25435.03461
799.8318 25805.77839
800.0176 25432.12649
800.2034 25441.46523
800.3892 24964.65714
800.5749 24807.78274
800.7606 24895.37436
800.9463 24941.18742
801.1320 24941.16694
801.3177 24979.99643
801.5034 25038.09730
801.6890 25186.45216
801.8747 24935.90366
802.0603 24513.61251
802.2459 24468.84391
802.4315 24492.62083
802.6171 24234.98636
802.8026 24589.16207
802.9882 24603.43642
803.1737 24272.07507
803.3592 24491.31013
803.5447 24665.26459
803.7302 24701.37028
803.9157 24630.65392
804.1012 24668.72566
804.2866 24210.18546
804.4720 24364.60230
804.6574 24222.10463
804.8428 24003.68877
805.0282 23931.84602
805.2136 24049.11271
805.3989 24210.32881
805.5843 23925.78404
805.7696 23865.28704
805.9549 23741.71260
806.1402 23712.69289
806.3255 23491.08219
806.5107 23598.37527
806.6960 23922.83496
806.8812 23568.98692
807.0664 23647.79276
807.2516 23250.30250
807.4368 23130.74209
807.6220 23202.76915
807.8072 23163.40719
807.9923 23200.94646
808.1774 23170.82084
808.3625 23508.10081
808.5476 23441.60326
808.7327 23473.36726
808.9178 23155.91162
809.1028 23222.06101
809.2879 23115.23896
809.4729 23062.91336
809.6579 22870.58862
809.8429 23127.07622
810.0279 23026.60288
810.2128 23036.55600
810.3978 23013.76211
810.5827 23045.83330
810.7676 23235.22945
810.9525 23287.94417
811.1374 23080.28014
811.3223 22909.82770
811.5072 22498.49317
811.6920 22460.91295
811.8768 22793.25732
812.0616 22428.18641
812.2464 22554.89423
812.4312 22463.47291
812.6160 22481.88415
812.8007 22633.55671
812.9855 22812.28295
813.1702 22488.54005
813.3549 22401.62425
813.5396 22239.81424
813.7243 22118.18538
813.9089 22330.51878
814.0936 22403.97942
814.2782 22403.87702
814.4628 22378.95324
814.6474 22397.20064
814.8320 22259.04467
815.0166 22024.90040
815.2012 22220.60430
815.3857 21987.93457
815.5702 21994.28327
815.7547 22070.91826
815.9392 21981.68826
816.1237 21756.96465
816.3082 21403.28045
816.4926 21643.60958
816.6771 21632.48911
816.8615 21400.63857
817.0459 21656.73706
817.2303 21638.30534
817.4147 21788.83104
817.5990 21767.49121
817.7834 21596.73157
817.9677 21499.90361
818.1520 21732.75766
818.3363 21522.30839
818.5206 21260.20935
818.7049 21399.86034
818.8891 21421.52785
819.0734 21365.51590
819.2576 21316.05746
819.4418 21069.09291
819.6260 21067.80269
819.8102 21191.84815
819.9944 21011.77026
820.1785 20860.54825
820.3627 21070.38313
820.5468 21041.05621
820.7309 20835.50159
820.9150 20635.16929
821.0991 20508.11331
821.2831 20753.48044
821.4672 20552.02176
821.6512 20409.99512
821.8352 20481.67403
822.0192 20816.96747
822.2032 20559.59924
822.3872 20743.54779
822.5711 20567.34056
822.7551 20543.52269
822.9390 20677.43936
823.1229 20766.71032
823.3068 20747.50037
823.4907 20381.44644
823.6745 20418.82187
823.8584 20358.50919
824.0422 20286.17493
824.2261 20286.15445
824.4099 20457.30320
824.5937 20582.27025
824.7774 20431.43736
824.9612 20400.79974
825.1449 20317.48838
825.3287 20258.56831
825.5124 20148.38760
825.6961 20374.95438
825.8798 20369.40438
826.0634 20441.37000
826.2471 20215.74529
826.4307 20307.41237
826.6144 20297.99171
826.7980 20394.20528
826.9816 20105.78985
827.1652 20248.45135
827.3487 20138.68022
827.5323 19898.00294
827.7158 19694.02525
827.8993 20033.31223
828.0828 19953.38001
828.2663 19641.90444
828.4498 19821.20411
828.6333 20159.75382
828.8167 19897.71622
829.0001 19893.49740
829.1836 19996.57167
829.3670 20028.97054
829.5504 20217.19935
829.7337 19838.20225
829.9171 19783.27573
830.1004 19807.40080
830.2837 19713.72671
830.4671 19529.63480
830.6504 19286.80714
830.8336 19423.81625
831.0169 19381.93529
831.2002 19606.02403
831.3834 19593.06039
831.5666 19522.11875
831.7498 19672.84925
831.9330 19829.27310
832.1162 19771.29511
832.2993 19553.00212
832.4825 19584.13125
832.6656 19460.53633
832.8487 19274.51933
833.0318 19328.70858
833.2149 19169.29470
833.3980 19298.09145
833.5811 19349.31115
833.7641 19309.21192
833.9471 19217.60628
834.1301 18962.67513
834.3131 18755.72789
834.4961 18971.54283
834.6791 19008.57011
834.8620 19376.97921
835.0450 19251.80736
835.2279 19379.12957
835.4108 19257.54167
835.5937 19371.42921
835.7766 19025.77305
835.9594 19136.36336
836.1423 19103.04291
836.3251 19436.47270
836.5079 19433.09355
836.6907 19065.38076
836.8735 18950.94027
837.0563 19021.14464
837.2390 18959.07070
837.4218 18742.51849
837.6045 18979.12032
837.7872 19174.37366
837.9699 18882.04660
838.1526 18710.40634
838.3352 18781.45037
838.5179 18872.85122
838.7005 18875.86173
838.8831 18909.22314
839.0658 18986.26773
839.2483 19184.28583
839.4309 19130.03513
839.6135 19125.03809
839.7960 18779.79152
839.9786 18870.29126
840.1611 18560.86366
840.3436 18741.96554
840.5261 18550.60334
840.7085 18439.00952
840.8910 18356.33302
841.0734 18433.54144
841.2559 18410.62467
841.4383 18560.24927
841.6207 18804.94058
841.8030 18546.28212
841.9854 18444.37520
842.1678 18338.16754
842.3501 18368.84611
842.5324 18302.36904
842.7147 18421.90898
842.8970 18642.80289
843.0793 18470.20008
843.2615 18484.49490
843.4438 18669.50840
843.6260 18649.21303
843.8082 18597.15367
843.9904 18578.43523
844.1726 18267.81981
844.3548 18096.58914
844.5369 18017.39419
844.7191 18124.38008
844.9012 18008.66985
845.0833 18056.46944
845.2654 18321.45611
845.4475 18468.78698
845.6296 18120.55038
845.8116 18027.90027
845.9936 17980.59219
846.1757 17874.97845
846.3577 17785.62557
846.5397 17800.43238
846.7216 17750.44147
846.9036 17747.14424
847.0855 17484.14409
847.2675 17686.83156
847.4494 17805.79806
847.6313 17920.07472
847.8132 17951.36768
847.9950 17843.95172
848.1769 17752.57135
848.3587 17927.11973
848.5406 17711.87821
848.7224 17720.90976
848.9042 17651.27882
849.0860 17768.58647
849.2677 17581.46356
849.4495 17408.36925
849.6312 17395.99951
849.8129 17590.49511
849.9946 17871.37402
850.1763 17722.44573
850.3580 17478.16402
850.5397 17377.89547
850.7213 17217.27328
850.9029 17243.65112
851.0845 17306.56472
851.2661 17299.78594
851.4477 17303.86140
851.6293 17346.15195
851.8109 17270.43855
851.9924 17288.46067
852.1739 17408.79932
852.3554 17305.88889
852.5369 17359.66855
852.7184 16987.22495
852.8999 16901.08739
853.0813 16941.00230
853.2628 17016.06035
853.4442 17095.74682
853.6256 17016.75666
853.8070 17046.57509
853.9883 17216.14690
854.1697 17080.91952
854.3510 16801.39227
854.5324 16825.31254
854.7137 16839.99648
854.8950 16822.46587
855.0763 16838.15331
855.2575 16828.01586
855.4388 16794.61349
855.6200 16830.71918
855.8013 16829.18320
855.9825 16629.03522
856.1637 16578.22511
856.3449 16633.21307
856.5260 16664.11692
856.7072 16528.02940
856.8883 16733.78882
857.0694 16603.27177
857.2505 16555.28786
857.4316 16493.68496
857.6127 16367.71440
857.7938 16471.05491
857.9748 16347.33712
858.1558 16263.75951
858.3368 16257.18553
858.5178 16149.15518
858.6988 16297.51004
858.8798 16227.32615
859.0607 16405.72470
859.2417 16378.36384
859.4226 16362.53304
859.6035 16366.91570
859.7844 16402.57083
859.9653 16332.71462
860.1462 16181.49261
860.3270 16240.63794
860.5078 16132.09560
860.6887 16201.23502
860.8695 16104.38658
861.0503 16017.77798
861.2310 15778.61619
861.4118 15748.49057
861.5925 15761.98669
861.7733 15791.94847
861.9540 15561.14239
862.1347 15424.35856
862.3154 15383.09199
862.4960 15570.56305
862.6767 15583.23997
862.8573 15611.46098
863.0380 15440.61943
863.2186 15472.77254
863.3992 15264.43268
863.5797 15302.01291
863.7603 15342.70605
863.9409 15390.28036
864.1214 15351.24607
864.3019 15293.57528
864.4824 15162.11616
864.6629 15103.64665
864.8434 14888.60993
865.0238 15015.11296
865.2043 15078.72287
865.3847 14850.66107
865.5651 14809.59930
865.7455 14910.70752
865.9259 14952.97759
866.1063 14792.88787
866.2866 14743.96190
866.4670 14698.47652
866.6473 14657.14851
866.8276 14657.72194
867.0079 14692.55789
867.1882 14495.23610
867.3684 14341.82276
867.5487 14399.96459
867.7289 14471.11103
867.9091 14462.05900
868.0893 14275.40713
868.2695 14057.05270
868.4497 13943.88195
868.6299 14026.90660
868.8100 14012.50938
868.9901 14029.38465
869.1703 14228.63153
869.3504 14218.65792
869.5304 14171.84135
869.7105 14296.21449
869.8906 14171.57512
870.0706 13961.98599
870.2506 13963.19430
870.4306 13997.62065
870.6106 13975.21587
870.7906 14159.59450
870.9706 14074.89051
871.1505 13970.56698
871.3305 13885.43292
871.5104 13815.53575
871.6903 13720.71480
871.8702 13769.59981
872.0500 13797.26787
872.2299 13756.32897
872.4097 13584.66823
872.5896 13591.20125
872.7694 13653.54142
872.9492 13653.07039
873.1290 13290.00649
873.3087 13298.73083
873.4885 13644.20268
873.6682 13596.46453
873.8480 13469.77718
874.0277 13429.00213
874.2074 13140.44333
874.3870 13164.69128
874.5667 13131.73946
874.7463 13332.46088
874.9260 13126.78338
875.1056 13108.59742
875.2852 13076.93582
875.4648 13115.88818
875.6444 13100.40554
875.8239 13197.64310
876.0035 13064.75040
876.1830 12961.49182
876.3625 12888.97325
876.5420 12896.14114
876.7215 12908.38799
876.9010 12826.46924
877.0804 12837.44635
877.2599 12665.86753
877.4393 12835.91038
877.6187 12886.90480
877.7981 12967.88148
877.9775 12836.34045
878.1568 12922.68281
878.3362 12828.39433
878.5155 12826.85835
878.6948 12563.14142
878.8741 12587.75800
879.0534 12516.44773
879.2327 12460.10811
879.4119 12505.57302
879.5912 12368.05192
879.7704 12549.80914
879.9496 12678.42158
880.1288 12625.85022
880.3080 12398.66905
880.4872 12455.74594
880.6663 12454.14852
880.8455 12426.33711
881.0246 12513.39626
881.2037 12466.14962
881.3828 12361.27314
881.5619 12366.08587
881.7409 12352.95839
881.9200 12283.51177
882.0990 12341.10065
882.2780 12191.14837
882.4570 12207.71644
882.6360 12261.22987
882.8150 12099.07170
882.9940 12062.29018
883.1729 12078.87873
883.3518 12297.88851
883.5308 12228.54428
883.7096 12220.16809
883.8885 12017.23487
884.0674 11924.68716
884.2463 11819.17581
884.4251 11910.00323
884.6039 11839.00015
884.7827 11897.38774
884.9615 11881.20878
885.1403 11778.58507
885.3191 11745.46942
885.4978 11619.35550
885.6765 11586.54704
885.8553 11705.84122
886.0340 11810.22619
886.2127 11718.00615
886.3913 11530.45318
886.5700 11406.91970
886.7486 11337.24780
886.9273 11362.23302
887.1059 11288.62903
887.2845 11208.20529
887.4630 11226.82133
887.6416 11298.62311
887.8202 11363.42085
887.9987 11339.88968
888.1772 11339.15242
888.3557 11311.68915
888.5342 11160.87674
888.7127 11316.64524
888.8912 11357.09262
889.0696 11375.17619
889.2481 11145.82417
889.4265 11012.15325
889.6049 10959.39757
889.7833 10917.53709
889.9616 10852.24785
890.1400 10855.58603
890.3183 10758.38944
890.4967 10870.41333
890.6750 11029.66338
890.8533 10880.32550
891.0316 10755.17413
891.2098 10622.17904
891.3881 10641.02035
891.5663 10547.05954
891.7445 10631.39490
891.9227 10606.96263
892.1009 10585.64327
892.2791 10646.54986
892.4573 10607.84325
892.6354 10533.09240
892.8136 10611.46816
892.9917 10571.16413
893.1698 10494.09907
893.3479 10563.81193
893.5259 10622.07664
893.7040 10458.87401
893.8820 10494.73394
894.0601 10386.94935
894.2381 10517.52783
894.4161 10564.40584
894.5941 10699.12122
894.7720 10634.44637
894.9500 10629.38789
895.1279 10655.02845
895.3058 10479.57897
895.4838 10432.04562
895.6616 10346.82964
895.8395 10271.40295
896.0174 10287.25423
896.1952 10384.69658
896.3731 10432.70097
896.5509 10400.58882
896.7287 10339.78463
896.9065 10289.24076
897.0842 10410.93106
897.2620 10285.22674
897.4397 10176.50008
897.6175 10197.81943
897.7952 10290.96105
897.9729 10374.51817
898.1506 10271.56679
898.3282 10169.14787
898.5059 10138.94033
898.6835 10172.26078
898.8611 10212.11425
899.0388 10016.12364
899.2163 9878.15199
899.3939 9845.77360
899.5715 10061.26087
899.7490 10064.29187
899.9266 9951.05968
900.1041 9986.79673
900.2816 10014.75150
900.4591 9975.28715
900.6365 10037.38156
900.8140 9928.42962
900.9914 9879.07358
901.1689 9901.23260
901.3463 9970.61778
901.5237 9981.26722
901.7011 9843.80755
901.8784 9798.28121
902.0558 9683.28776
902.2331 9768.25799
902.4104 9808.64393
902.5878 9778.49783
902.7650 9733.29916
902.9423 9676.38611
903.1196 9783.82255
903.2968 9825.10960
903.4741 9797.70778
903.6513 9694.89975
903.8285 9643.86436
904.0057 9721.07279
904.1828 9566.73786
904.3600 9441.83225
904.5371 9450.08556
904.7143 9476.40196
904.8914 9500.81375
905.0685 9587.95482
905.2456 9533.62221
905.4226 9523.73052
905.5997 9600.16071
905.7767 9688.05953
905.9537 9589.04024
906.1307 9528.21557
906.3077 9477.65122
906.4847 9471.69163
906.6617 9410.94888
906.8386 9540.21667
907.0156 9400.03320
907.1925 9347.56425
907.3694 9363.76368
907.5463 9309.71778
907.7231 9327.33031
907.9000 9365.07438
908.0768 9327.41223
908.2537 9222.51527
908.4305 9153.45777
908.6073 9231.30106
908.7841 9274.14457
908.9608 9203.67396
909.1376 9156.83692
909.3143 9198.10349
909.4910 9158.22953
909.6677 9193.88467
909.8444 9184.27970
910.0211 9163.55425
910.1978 9096.56520
910.3744 9183.21475
910.5510 9193.47508
910.7277 9208.91676
910.9043 9074.07850
911.0808 9053.59881
911.2574 9036.60067
911.4340 9009.95660
911.6105 8885.23530
911.7870 8916.54874
911.9636 8972.15109
912.1401 8915.46332
912.3165 8924.88397
912.4930 8881.61040
912.6695 8778.08557
912.8459 8805.81507
913.0223 8781.93576
913.1987 8751.09335
913.3751 8746.52638
913.5515 8739.89096
913.7279 8803.54183
913.9042 8755.74224
914.0805 8631.36909
914.2568 8620.41246
914.4331 8632.67979
914.6094 8633.43754
914.7857 8667.16759
914.9620 8687.72919
915.1382 8593.95270
915.3144 8543.01972
915.4906 8657.56261
915.6668 8699.62789
915.8430 8597.57761
916.0192 8441.29711
916.1953 8462.63695
916.3715 8487.58121
916.5476 8428.55875
916.7237 8522.97011
916.8998 8459.42164
917.0759 8352.02616
917.2519 8294.51919
917.4280 8427.80100
917.6040 8369.88444
917.7800 8363.37190
917.9560 8340.14794
918.1320 8364.60068
918.3080 8367.34496
918.4839 8328.88411
918.6599 8313.87250
918.8358 8296.23949
919.0117 8271.19283
919.1876 8249.97587
919.3635 8228.04213
919.5394 8347.74590
919.7152 8288.84632
919.8911 8267.48601
920.0669 8235.16906
920.2427 8045.99819
920.4185 8034.91867
920.5942 8046.28490
920.7700 8012.43198
920.9458 8093.81826
921.1215 8116.28447
921.2972 8086.58893
921.4729 8067.13322
921.6486 7925.80290
921.8243 7778.10339
921.9999 7804.13308
922.1756 7785.10745
922.3512 7849.45463
922.5268 7796.78087
922.7024 7894.73521
922.8780 7934.95732
923.0535 7921.58408
923.2291 7836.32715
923.4046 7905.26177
923.5801 8014.52091
923.7557 7940.05676
923.9311 7901.22727
924.1066 7835.93803
924.2821 7873.37490
924.4575 7889.22618
924.6330 7840.58692
924.8084 7763.72665
924.9838 7689.40587
925.1592 7714.73924
925.3345 7687.91085
925.5099 7610.12900
925.6852 7578.56980
925.8606 7640.99189
926.0359 7532.08091
926.2112 7519.24014
926.3864 7465.25569
926.5617 7351.51150
926.7370 7355.46408
926.9122 7336.31558
927.0874 7321.89788
927.2626 7336.25414
927.4378 7321.30396
927.6130 7334.98440
927.7882 7320.56670
927.9633 7204.97934
928.1384 7172.31424
928.3135 7144.97385
928.4886 7077.14513
928.6637 7124.88328
928.8388 7145.13769
929.0139 7132.97276
929.1889 7110.67038
929.3639 7097.05139
929.5389 7116.40469
929.7139 7106.28772
929.8889 7120.93070
930.0639 7130.84287
930.2388 7021.60422
930.4138 6996.39372
930.5887 6982.36514
930.7636 6970.28212
930.9385 6957.11368
931.1134 6908.96594
931.2882 6905.99638
931.4631 6822.80789
931.6379 6780.76309
931.8127 6731.52992
931.9875 6717.97237
932.1623 6739.86516
932.3371 6723.31757
932.5118 6676.21429
932.6866 6659.27759
932.8613 6671.91355
933.0360 6677.68882
933.2107 6645.76099
933.3854 6613.05493
933.5600 6612.82965
933.7347 6488.37459
933.9093 6525.72954
934.0839 6548.31864
934.2586 6596.71214
934.4331 6541.62178
934.6077 6502.25982
934.7823 6440.80028
934.9568 6516.49320
935.1314 6451.26540
935.3059 6435.94659
935.4804 6338.77048
935.6549 6363.22322
935.8293 6368.24075
936.0038 6343.95184
936.1782 6363.71474
936.3526 6356.01437
936.5271 6280.71056
936.7015 6244.25672
936.8758 6247.20579
937.0502 6201.02410
937.2246 6197.70639
937.3989 6295.74265
937.5732 6233.40248
937.7475 6177.16526
937.9218 6153.81842
938.0961 6135.96013
938.2703 6117.38505
938.4446 6060.94304
938.6188 6098.85094
938.7930 6088.07862
938.9672 6066.34967
939.1414 6124.65534
939.3156 6054.69673
939.4897 5996.73922
939.6639 5935.46399
939.8380 5927.39499
940.0121 5918.83448
940.1862 5933.43650
940.3603 5968.47725
940.5344 5984.55380
940.7084 5973.16710
940.8824 5930.87654
941.0565 5909.68006
941.2305 5875.21275
941.4045 5778.50767
941.5784 5746.86655
941.7524 5757.41359
941.9263 5844.41130
942.1003 5838.51315
942.2742 5814.03992
942.4481 5734.41490
942.6220 5765.54402
942.7958 5745.45345
942.9697 5747.15326
943.1435 5703.90016
943.3174 5697.08043
943.4912 5632.34414
943.6650 5624.58233
943.8387 5562.89752
944.0125 5556.01634
944.1863 5604.77848
944.3600 5638.36516
944.5337 5625.60632
944.7074 5661.15906
944.8811 5611.22958
945.0548 5593.45321
945.2284 5514.31970
945.4021 5511.32966
945.5757 5554.78756
945.7493 5498.03835
945.9229 5349.23294
946.0965 5288.81786
946.2701 5276.01805
946.4436 5333.48406
946.6172 5324.08388
946.7907 5316.75215
946.9642 5323.14181
947.1377 5327.48351
947.3112 5282.69443
947.4847 5303.44035
947.6581 5332.37815
947.8315 5340.48811
948.0050 5252.17970
948.1784 5190.63824
948.3518 5216.11497
948.5251 5228.87381
948.6985 5300.49128
948.8718 5254.96493
949.0452 5138.29215
949.2185 5121.68313
949.3918 5114.59716
949.5651 5165.26390
949.7383 5122.66615
949.9116 5110.37834
950.0848 5152.75081
950.2581 5161.22940
950.4313 5185.72311
950.6045 5224.96219
950.7776 5206.18232
950.9508 5103.25141
951.1239 5089.71434
951.2971 4979.67698
951.4702 5008.16422
951.6433 5015.63931
951.8164 4964.76776
951.9895 4980.92624
952.1625 4917.91024
952.3356 4957.86611
952.5086 4906.46209
952.6816 4934.04823
952.8546 4909.43165
953.0276 4866.48574
953.2006 4871.38039
953.3735 4876.68463
953.5465 4893.84660
953.7194 4912.87223
953.8923 4852.23188
954.0652 4858.19147
954.2381 4817.43689
954.4109 4800.76642
954.5838 4794.27436
954.7566 4780.79873
954.9294 4724.93014
955.1022 4719.09343
955.2750 4716.28771
955.4478 4708.56687
955.6206 4753.08971
955.7933 4774.47051
955.9660 4740.55614
956.1388 4780.00002
956.3115 4748.76850
956.4841 4676.35232
956.6568 4620.54518
956.8295 4648.09035
957.0021 4612.45570
957.1747 4628.77801
957.3473 4600.10645
957.5199 4561.85039
957.6925 4574.13820
957.8651 4588.39207
958.0376 4555.17401
958.2102 4543.97162
958.3827 4591.68930
958.5552 4616.67451
958.7277 4585.77067
958.9001 4540.20336
959.0726 4475.50803
959.2450 4424.92320
959.4175 4454.31155
959.5899 4402.23171
959.7623 4387.01530
959.9347 4349.59891
960.1070 4335.65224
960.2794 4350.39762
960.4517 4321.09118
960.6241 4362.05056
960.7964 4368.17399
960.9687 4370.81587
961.1409 4378.18855
961.3132 4357.97510
961.4855 4340.32161
961.6577 4303.54009
961.8299 4279.43550
962.0021 4266.94289
962.1743 4235.95712
962.3465 4200.83446
962.5186 4174.39518
962.6908 4193.56417
962.8629 4180.74389
963.0350 4144.08525
963.2071 4154.65276
963.3792 4170.38116
963.5513 4185.57709
963.7233 4222.48149
963.8954 4216.13279
964.0674 4211.75013
964.2394 4156.68025
964.4114 4138.22805
964.5834 4133.14909
964.7553 4116.54007
964.9273 4118.40372
965.0992 4106.17734
965.2711 4142.67215
965.4430 4115.14745
965.6149 4091.45245
965.7868 4078.83696
965.9587 4070.52221
966.1305 4080.31150
966.3023 4070.91132
966.4741 4056.88274
966.6459 4046.13090
966.8177 4057.51761
966.9895 4040.27371
967.1613 4064.84933
967.3330 4045.27075
967.5047 4003.20547
967.6764 3990.13943
967.8481 4000.42024
968.0198 3983.93409
968.1915 3937.15848
968.3631 3902.05630
968.5347 3910.71921
968.7064 3924.05148
968.8780 3916.69928
969.0496 3892.63564
969.2211 3881.90429
969.3927 3902.93693
969.5642 3832.13865
969.7358 3817.39327
969.9073 3807.11247
970.0788 3839.06078
970.2503 3858.78272
970.4217 3859.76574
970.5932 3841.88698
970.7646 3830.23403
970.9360 3838.18015
971.1074 3879.83584
971.2788 3880.10207
971.4502 3844.13974
971.6216 3809.57003
971.7929 3756.09757
971.9643 3778.54330
972.1356 3806.08848
972.3069 3786.03887
972.4782 3760.15254
972.6494 3750.77285
972.8207 3728.34759
972.9919 3712.23008
973.1632 3694.78138
973.3344 3698.69300
973.5056 3650.68861
973.6768 3629.75837
973.8479 3667.13380
974.0191 3696.03064
974.1902 3701.72400
974.3614 3688.78083
974.5325 3671.43454
974.7036 3643.70504
974.8746 3638.62608
975.0457 3648.86592
975.2167 3630.35228
975.3878 3589.00380
975.5588 3558.89865
975.7298 3563.64994
975.9008 3543.29313
976.0718 3534.42543
976.2427 3529.48982
976.4137 3530.12469
976.5846 3517.93928
976.7555 3518.71751
976.9264 3511.59058
977.0973 3510.30036
977.2682 3530.53429
977.4390 3545.60734
977.6098 3559.45161
977.7807 3534.85550
977.9515 3532.82801
978.1223 3567.74588
978.2930 3513.26991
978.4638 3485.88857
978.6346 3445.07255
978.8053 3413.77959
978.9760 3409.33550
979.1467 3376.67040
979.3174 3391.72297
979.4881 3381.21689
979.6587 3395.28643
979.8294 3387.34031
980.0000 3379.94715
980.1706 3354.77761
980.3412 3356.23167
980.5118 3372.26726
980.6824 3374.82722
980.8529 3391.19049
981.0235 3366.96302
981.1940 3357.31709
981.3645 3330.75494
981.5350 3340.60567
981.7055 3316.39867
981.8759 3314.12543
982.0464 3316.78779
982.2168 3275.19354
982.3872 3316.95163
982.5576 3288.07527
982.7280 3283.18062
982.8984 3285.00331
983.0687 3293.58430
983.2391 3299.85109
983.4094 3279.16660
983.5797 3265.13802
983.7500 3249.51202
983.9203 3219.67311
984.0906 3240.54191
984.2608 3209.78142
984.4311 3206.13604
984.6013 3177.44400
984.7715 3243.81866
984.9417 3238.80114
985.1119 3213.09913
985.2820 3165.19714
985.4522 3153.76948
985.6223 3178.75470
985.7924 3183.03495
985.9625 3206.97570
986.1326 3214.86038
986.3027 3171.17721
986.4727 3167.42943
986.6428 3163.06725
986.8128 3149.57114
986.9828 3128.62042
987.1528 3117.68427
987.3228 3112.29811
987.4928 3123.60290
987.6627 3131.81525
987.8327 3123.62338
988.0026 3123.27522
988.1725 3131.01654
988.3424 3110.22966
988.5123 3111.82708
988.6821 3085.20348
988.8520 3083.54463
989.0218 3045.98488
989.1916 3053.76716
989.3614 3017.84579
989.5312 3026.54966
989.7010 3017.33380
989.8707 3033.30795
990.0405 3025.25944
990.2102 3045.59577
990.3799 3030.95279
990.5496 3008.83473
990.7193 2992.43050
990.8890 2986.20467
991.0586 2975.57572
991.2283 2978.34047
991.3979 2978.97534
991.5675 3005.90613
991.7371 2980.75708
991.9067 2966.13458
992.0762 2947.14991
992.2458 2964.45525
992.4153 2966.50321
992.5848 2970.55819
992.7543 2970.06668
992.9238 2926.32207
993.0933 2933.10084
993.2627 2936.56191
993.4322 2926.24015
993.6016 2934.63682
993.7710 2894.88575
993.9404 2900.06711
994.1098 2893.63649
994.2792 2906.80493
994.4485 2890.91269
994.6179 2895.86877
994.7872 2896.25789
994.9565 2909.09865
995.1258 2913.52226
995.2951 2911.49477
995.4643 2902.42227
995.6336 2917.02429
995.8028 2888.63944
995.9720 2856.60921
996.1412 2860.72563
996.3104 2882.24978
996.4796 2888.45512
996.6487 2877.25274
996.8179 2875.26621
996.9870 2861.72913
997.1561 2838.38229
997.3252 2837.15351
997.4943 2830.74337
997.6634 2818.82419
997.8324 2835.43321
998.0014 2815.54744
998.1705 2804.34505
998.3395 2780.89581
998.5085 2767.03106
998.6774 2769.36574
998.8464 2763.59047
999.0153 2763.61095
999.1843 2772.19194
999.3532 2771.20891
999.5221 2745.60930
999.6910 2754.06742
999.8599 2771.57755
1000.0287 2782.41130
1000.1976 2783.84488
1000.3664 2802.85003
1000.5352 2796.33749
1000.7040 2793.36794
1000.8728 2779.85134
1001.0415 2729.83995
1001.2103 2715.50416
1001.3790 2710.85527
1001.5478 2688.59385
1001.7165 2706.04255
1001.8851 2694.75824
1002.0538 2701.82373
1002.2225 2703.64643
1002.3911 2697.66636
1002.5598 2676.10125
1002.7284 2674.17615
1002.8970 2654.88429
1003.0656 2662.15458
1003.2341 2633.11438
1003.4027 2650.84979
1003.5712 2606.92086
1003.7398 2614.70314
1003.9083 2612.22510
1004.0768 2600.08065
1004.2453 2589.32881
1004.4137 2631.23025
1004.5822 2614.25259
1004.7506 2627.25719
1004.9190 2605.13913
1005.0874 2595.53415
1005.2558 2606.59319
1005.4242 2605.34393
1005.5926 2601.53470
1005.7609 2589.88176
1005.9292 2584.06553
1006.0976 2607.55573
1006.2659 2602.39485
1006.4342 2630.55442
1006.6024 2596.59910
1006.7707 2595.94375
1006.9389 2582.85723
1007.1071 2582.93915
1007.2754 2585.47863
1007.4436 2579.17088
1007.6117 2567.53842
1007.7799 2560.63677
1007.9481 2558.97791
1008.1162 2563.56536
1008.2843 2539.78845
1008.4524 2554.80006
1008.6205 2535.54915
1008.7886 2547.95984
1008.9566 2537.98623
1009.1247 2532.39528
1009.2927 2515.82721
1009.4607 2514.76227
1009.6287 2499.73018
1009.7967 2509.02795
1009.9647 2488.83498
1010.1327 2471.07909
1010.3006 2451.60291
1010.4685 2433.41695
1010.6364 2453.97855
1010.8043 2462.80530
1010.9722 2439.76565
1011.1401 2429.62821
1011.3079 2431.45090
1011.4758 2451.62339
1011.6436 2433.08927
1011.8114 2451.48003
1011.9792 2439.02838
1012.1470 2462.21139
1012.3147 2456.12892
1012.4825 2467.33131
1012.6502 2448.20328
1012.8179 2461.31028
1012.9856 2421.60017
1013.1533 2435.81307
1013.3210 2398.70388
1013.4886 2405.38026
1013.6563 2387.39909
1013.8239 2395.77528
1013.9915 2411.36033
1014.1591 2394.91514
1014.3267 2401.24336
1014.4942 2412.87582
1014.6618 2399.40019
1014.8293 2407.40775
1014.9969 2393.39964
1015.1644 2413.81789
1015.3319 2422.11216
1015.4993 2387.91108
1015.6668 2384.98249
1015.8342 2369.88896
1016.0017 2357.02771
1016.1691 2383.56939
1016.3365 2374.37401
1016.5039 2372.57180
1016.6712 2358.68657
1016.8386 2365.87494
1017.0059 2354.40631
1017.1733 2368.16866
1017.3406 2347.60706
1017.5079 2355.71701
1017.6752 2338.59600
1017.8424 2338.90319
1018.0097 2327.37313
1018.1769 2337.12146
1018.3441 2314.18421
1018.5113 2323.46151
1018.6785 2309.90395
1018.8457 2310.00635
1019.0129 2310.43643
1019.1800 2322.43752
1019.3471 2331.71482
1019.5142 2313.71317
1019.6813 2301.91687
1019.8484 2323.85062
1020.0155 2299.23404
1020.1826 2295.38385
1020.3496 2280.67944
1020.5166 2274.39218
1020.6836 2267.65436
1020.8506 2270.03000
1021.0176 2250.16470
1021.1846 2269.41561
1021.3515 2263.57890
1021.5185 2268.20731
1021.6854 2255.61230
1021.8523 2271.89365
1022.0192 2270.05048
1022.1861 2274.04402
1022.3529 2248.99736
1022.5198 2262.41156
1022.6866 2258.95049
1022.8534 2269.76377
1023.0202 2251.16821
1023.1870 2247.03131
1023.3538 2223.47967
1023.5205 2252.19219
1023.6873 2230.42229
1023.8540 2237.20106
1024.0207 2232.67505
1024.1874 2230.87284
1024.3541 2223.74591
1024.5207 2235.78796
1024.6874 2206.13338
1024.8540 2216.94665
1025.0206 2204.98651
1025.1872 2210.86418
1025.3538 2195.46346
1025.5204 2208.05847
1025.6870 2195.62730
1025.8535 2187.35350
1026.0201 2192.90350
1026.1866 2187.94741
1026.3531 2181.51679
1026.5196 2178.58820
1026.6860 2189.79059
1026.8525 2197.32711
1027.0189 2162.63452
1027.1853 2175.57768
1027.3518 2172.30093
1027.5181 2181.51679
1027.6845 2174.26698
1027.8509 2153.02955
1028.0172 2140.02495
1028.1836 2150.26479
1028.3499 2135.88805
1028.5162 2146.20981
1028.6825 2136.42052
1028.8488 2130.27661
1029.0150 2129.84654
1029.1813 2129.60078
1029.3475 2111.00523
1029.5137 2122.12570
1029.6799 2125.48437
1029.8461 2102.36280
1030.0123 2111.04619
1030.1784 2119.77053
1030.3446 2119.36094
1030.5107 2121.36795
1030.6768 2101.11354
1030.8429 2101.64601
1031.0090 2093.94565
1031.1750 2108.44527
1031.3411 2103.87830
1031.5071 2097.20192
1031.6732 2092.22535
1031.8392 2103.03863
1032.0051 2095.33827
1032.1711 2086.73680
1032.3371 2070.68072
1032.5030 2082.45654
1032.6690 2073.38404
1032.8349 2073.95747
1033.0008 2068.77611
1033.1667 2068.05932
1033.3325 2053.39587
1033.4984 2069.41098
1033.6642 2069.65674
1033.8300 2073.01541
1033.9959 2061.64918
1034.1616 2075.75969
1034.3274 2058.94586
1034.4932 2058.80250
1034.6589 2043.15602
1034.8247 2055.56671
1034.9904 2045.79790
1035.1561 2045.83886
1035.3218 2034.20640
1035.4875 2045.69550
1035.6531 2032.56803
1035.8188 2043.21746
1035.9844 2024.70382
1036.1500 2034.73887
1036.3156 2021.48851
1036.4812 2019.72726
1036.6468 2022.94257
1036.8123 2009.97893
1036.9779 2011.31011
1037.1434 2021.71379
1037.3089 2020.89460
1037.4744 2014.27966
1037.6399 2014.05439
1037.8053 2006.33355
1037.9708 2008.54535
1038.1362 2008.60679
1038.3016 2009.67173
1038.4670 2014.85310
1038.6324 2009.36454
1038.7978 1978.64501
1038.9632 1994.59868
1039.1285 1992.18208
1039.2938 1974.75387
1039.4592 1986.40681
1039.6245 1979.58707
1039.7897 1977.72342
1039.9550 1977.45719
1040.1203 1983.02766
1040.2855 1974.67195
1040.4507 1983.29390
1040.6159 1968.40516
1040.7811 1975.71641
1040.9463 1974.79483
1041.1115 1966.88967
1041.2766 1955.66680
1041.4418 1958.16532
1041.6069 1931.54173
1041.7720 1939.09873
1041.9371 1928.55169
1042.1021 1946.08230
1042.2672 1926.85188
1042.4323 1951.26367
1042.5973 1946.16422
1042.7623 1930.45630
1042.9273 1928.83841
1043.0923 1938.44338
1043.2572 1924.21000
1043.4222 1910.83676
1043.5871 1907.37570
1043.7521 1926.05317
1043.9170 1940.36847
1044.0819 1916.10004
1044.2467 1911.45115
1044.4116 1918.74192
1044.5765 1900.45356
1044.7413 1906.96610
1044.9061 1906.43363
1045.0709 1907.56001
1045.2357 1889.41501
1045.4005 1887.81759
1045.5652 1884.02885
1045.7300 1879.31852
1045.8947 1884.47940
1046.0594 1877.68015
1046.2241 1876.26705
1046.3888 1887.16224
1046.5535 1874.56724
1046.7181 1879.66668
1046.8828 1867.46078
1047.0474 1857.67149
1047.2120 1857.67149
1047.3766 1857.50766
1047.5412 1848.78331
1047.7057 1858.20397
1047.8703 1862.09511
1048.0348 1859.76042
1048.1993 1854.21043
1048.3639 1857.69197
1048.5283 1831.39605
1048.6928 1837.64236
1048.8573 1822.13924
1049.0217 1824.18720
1049.1861 1821.40197
1049.3506 1842.94660
1049.5150 1819.64071
1049.6793 1830.74070
1049.8437 1819.55880
1050.0081 1829.81912
1050.1724 1812.63666
1050.3367 1826.29661
1050.5010 1802.04866
1050.6653 1809.11415
1050.8296 1812.26803
1050.9939 1812.94386
1051.1581 1791.66546
1051.3224 1809.89238
1051.4866 1786.05403
1051.6508 1802.66305
1051.8150 1795.47468
1051.9791 1791.39923
1052.1433 1788.51159
1052.3074 1782.44960
1052.4716 1769.87507
1052.6357 1783.22783
1052.7998 1775.07691
1052.9639 1777.84167
1053.1279 1768.81013
1053.2920 1766.84408
1053.4560 1762.66622
1053.6201 1767.29463
1053.7841 1762.66622
1053.9481 1767.62231
1054.1120 1761.68320
1054.2760 1763.07582
1054.4399 1761.02785
1054.6039 1754.16715
1054.7678 1751.27952
1054.9317 1759.36899
1055.0956 1749.23155
1055.2595 1747.55221
1055.4233 1731.33230
1055.5872 1732.25389
1055.7510 1718.98305
1055.9148 1733.29835
1056.0786 1719.33120
1056.2424 1740.13857
1056.4062 1719.39264
1056.5699 1729.57105
1056.7336 1709.29616
1056.8974 1711.26221
1057.0611 1700.67421
1057.2248 1702.68122
1057.3885 1694.18215
1057.5521 1701.67771
1057.7158 1686.33843
1057.8794 1699.28159
1058.0430 1695.82052
1058.2066 1693.64968
1058.3702 1689.86093
1058.5338 1701.92347
1058.6973 1687.85393
1058.8609 1692.13418
1059.0244 1683.81943
1059.1879 1687.21905
1059.3514 1665.61298
1059.5149 1677.14305
1059.6784 1669.89324
1059.8418 1667.43568
1060.0053 1666.73937
1060.1687 1658.15838
1060.3321 1658.95709
1060.4955 1656.66336
1060.6589 1654.18532
1060.8222 1664.56852
1060.9856 1657.52351
1061.1489 1657.25727
1061.3122 1648.32813
1061.4755 1652.99750
1061.6388 1648.32813
1061.8021 1656.47904
1061.9654 1644.12979
1062.1286 1648.96300
1062.2918 1641.42647
1062.4550 1636.59327
1062.6182 1635.30305
1062.7814 1640.97592
1062.9446 1630.69512
1063.1077 1628.58571
1063.2709 1612.14052
1063.4340 1618.85786
1063.5971 1615.47871
1063.7602 1628.85195
1063.9233 1606.91820
1064.0863 1617.19900
1064.2494 1607.79883
1064.4124 1611.93572
1064.5754 1598.76728
1064.7384 1605.87374
1064.9014 1603.45713
1065.0644 1602.71986
1065.2274 1591.23076
1065.3903 1598.97208
1065.5532 1586.70475
1065.7162 1597.10843
1065.8790 1594.67135
1066.0419 1591.00548
1066.2048 1591.45604
1066.3677 1587.79017
1066.5305 1580.49940
1066.6933 1578.59479
1066.8561 1566.96233
1067.0189 1564.15661
1067.1817 1563.78798
1067.3445 1564.64813
1067.5072 1559.75348
1067.6699 1562.90735
1067.8327 1551.66400
1067.9954 1554.34684
1068.1580 1552.25791
1068.3207 1551.76640
1068.4834 1535.34169
1068.6460 1550.72194
1068.8086 1539.37619
1068.9713 1541.42416
1069.1339 1529.56642
1069.2964 1534.56346
1069.4590 1526.39207
1069.6216 1541.40368
1069.7841 1518.17971
1069.9466 1522.00942
1070.1091 1519.22418
1070.2716 1521.29263
1070.4341 1515.25112
1070.5966 1531.67583
1070.7590 1509.16865
1070.9214 1520.98543
1071.0839 1503.25002
1071.2463 1512.48636
1071.4086 1498.00722
1071.5710 1502.06220
1071.7334 1495.79542
1071.8957 1499.52272
1072.0580 1492.88730
1072.2204 1491.41276
1072.3827 1483.61000
1072.5449 1484.51111
1072.7072 1478.65392
1072.8695 1471.97754
1073.0317 1479.06351
1073.1939 1472.10042
1073.3561 1467.47201
1073.5183 1475.90964
1073.6805 1460.81611
1073.8427 1465.28068
1074.0048 1463.19175
1074.1669 1467.45153
1074.3291 1453.05431
1074.4912 1464.76869
1074.6532 1449.49084
1074.8153 1453.30006
1074.9774 1446.13217
1075.1394 1459.28013
1075.3014 1448.07774
1075.4635 1457.51888
1075.6255 1436.95727
1075.7874 1440.62314
1075.9494 1435.29842
1076.1114 1436.54768
1076.2733 1432.49270
1076.4352 1430.75193
1076.5971 1418.09548
1076.7590 1424.09603
1076.9209 1423.70692
1077.0828 1420.92168
1077.2446 1417.07150
1077.4064 1413.11892
1077.5683 1393.54034
1077.7301 1402.08037
1077.8918 1400.56487
1078.0536 1410.37464
1078.2154 1404.98848
1078.3771 1400.85158
1078.5388 1393.45842
1078.7006 1401.05638
1078.8623 1385.47134
1079.0239 1391.77908
1079.1856 1386.94588
1079.3473 1394.81008
1079.5089 1378.01673
1079.6705 1376.97227
1079.8321 1384.77503
1079.9937 1384.46783
1080.1553 1364.35678
1080.3169 1377.09515
1080.4784 1371.01268
1080.6399 1373.79792
1080.8014 1366.19995
1080.9629 1384.75455
1081.1244 1362.34977
1081.2859 1370.70548
1081.4474 1353.50255
1081.6088 1365.83132
1081.7702 1354.11694
1081.9316 1351.43410
1082.0930 1350.53299
1082.2544 1347.35864
1082.4158 1343.20126
1082.5771 1356.53354
1082.7385 1342.27968
1082.8998 1346.96953
1083.0611 1337.01640
1083.2224 1341.48097
1083.3837 1333.78061
1083.5449 1333.14574
1083.7062 1321.36992
1083.8674 1335.07083
1084.0286 1317.33542
1084.1898 1325.26106
1084.3510 1313.15756
1084.5122 1324.13468
1084.6734 1303.65499
1084.8345 1322.61918
1084.9956 1304.98617
1085.1567 1314.65258
1085.3178 1312.03118
1085.4789 1314.44778
1085.6400 1305.08857
1085.8010 1305.27288
1085.9621 1296.81477
1086.1231 1312.70701
1086.2841 1283.50298
1086.4451 1294.00905
1086.6061 1286.82068
1086.7670 1295.19688
1086.9280 1286.37013
1087.0889 1293.02603
1087.2498 1288.99153
1087.4107 1289.91312
1087.5716 1281.16829
1087.7325 1269.20815
1087.8933 1274.69671
1088.0542 1299.14946
1088.2150 1271.19468
1088.3758 1281.25021
1088.5366 1275.96645
1088.6974 1276.25317
1088.8582 1267.63122
1089.0189 1278.54689
1089.1796 1271.62476
1089.3404 1275.02438
1089.5011 1259.27550
1089.6618 1280.51294
1089.8224 1263.65816
1089.9831 1275.86405
1090.1438 1258.04672
1090.3044 1279.91903
1090.4650 1264.41591
1090.6256 1269.76110
1090.7862 1261.09820
1090.9468 1266.03380
1091.1073 1253.58215
1091.2679 1255.40484
1091.4284 1259.54174
1091.5889 1273.24265
1091.7494 1257.06370
1091.9099 1264.08823
1092.0703 1254.21702
1092.2308 1264.82550
1092.3912 1253.27496
1092.5516 1272.25963
1092.7121 1254.76997
1092.8724 1258.16960
1093.0328 1250.98123
1093.1932 1255.26149
1093.3535 1252.23049
1093.5139 1263.00281
1093.6742 1257.08418
1093.8345 1255.85540
1093.9948 1255.69156
1094.1550 1259.84894
1094.3153 1255.63012
1094.4755 1259.09119
1094.6358 1259.58270
1094.7960 1256.65410
1094.9562 1249.71149
1095.1163 1265.35797
1095.2765 1245.43124
1095.4367 1257.37089
1095.5968 1256.36739
1095.7569 1257.57569
1095.9170 1252.66057
1096.0771 1261.67163
1096.2372 1246.82385
1096.3973 1258.10816
1096.5573 1256.79746
1096.7173 1258.88639
1096.8773 1248.70799
1097.0374 1258.02624
1097.1973 1248.29839
1097.3573 1255.97827
1097.5173 1251.55466
1097.6772 1252.14857
1097.8371 1249.30190
1097.9970 1255.09765
1098.1569 1253.84839
1098.3168 1250.57164
1098.4767 1249.65005
1098.6365 1250.87883
1098.7964 1256.14211
1098.9562 1254.83141
1099.1160 1248.09360
1099.2758 1261.09820
1099.4356 1256.53123
1099.5953 1257.45281
1099.7551 1247.52016
1099.9148 1269.00336
1100.0745 1249.58861
1100.2342 1248.78990
1100.3939 1249.30190
1100.5536 1264.78454
1100.7132 1252.35337
1100.8729 1253.15208
1101.0325 1251.59562
1101.1921 1257.12514
1101.3517 1250.36684
1101.5113 1253.99175
1101.6709 1246.53714
1101.8304 1255.32292
1101.9899 1246.43474
1102.1495 1258.76351
1102.3090 1235.45763
1102.4685 1266.17716
1102.6279 1245.45172
1102.7874 1250.75595
1102.9468 1247.62256
1103.1063 1256.96130
1103.2657 1252.82440
1103.4251 1255.91684
1103.5845 1251.96426
1103.7438 1256.14211
1103.9032 1244.42773
1104.0625 1252.02570
1104.2219 1242.64600
1104.3812 1243.77238
1104.5405 1248.17551
1104.6997 1251.26795
1104.8590 1252.18953
1105.0183 1244.96020
1105.1775 1243.26039
1105.3367 1261.34395
1105.4959 1245.82035
1105.6551 1255.65060
1105.8143 1247.90928
1105.9735 1258.92735
1106.1326 1243.56758
1106.2917 1253.13160
1106.4508 1239.43069
1106.6099 1257.47329
1106.7690 1245.22644
1106.9281 1254.95429
1107.0872 1241.78585
1107.2462 1252.53769
1107.4052 1246.78290
1107.5642 1247.37681
1107.7232 1250.73548
1107.8822 1258.64063
1108.0412 1236.15394
1108.2001 1246.45522
1108.3591 1246.22994
1108.5180 1253.13160
1108.6769 1248.50319
1108.8358 1252.61961
1108.9947 1245.32884
1109.1535 1250.98123
1109.3124 1247.21297
1109.4712 1248.62607
1109.6300 1250.12108
1109.7888 1260.95484
1109.9476 1241.76537
1110.1064 1260.17661
1110.2651 1253.09064
1110.4239 1259.52126
1110.5826 1245.06260
1110.7413 1258.04672
1110.9000 1252.80392
1111.0587 1250.65356
1111.2173 1245.92275
1111.3760 1246.86481
1111.5346 1249.91629
1111.6932 1254.25798
1111.8518 1251.34987
1112.0104 1254.70853
1112.1690 1248.50319
1112.3276 1251.73898
1112.4861 1237.93567
1112.6446 1253.78695
1112.8032 1249.07662
1112.9617 1253.09064
1113.1201 1247.45872
1113.2786 1248.13455
1113.4371 1249.54765
1113.5955 1255.65060
1113.7539 1242.54360
1113.9123 1253.95079
1114.0707 1253.31592
1114.2291 1255.99875
1114.3875 1244.53013
1114.5458 1249.60909
1114.7042 1247.43825
1114.8625 1243.93622
1115.0208 1248.46223
1115.1791 1251.86186
1115.3374 1243.09655
1115.4956 1259.11167
1115.6539 1247.19249
1115.8121 1249.93677
1115.9703 1255.99875
1116.1285 1250.75595
1116.2867 1240.92570
1116.4449 1248.89230
1116.6030 1245.47220
1116.7612 1253.47975
1116.9193 1242.95319
1117.0774 1252.96776
1117.2355 1244.96020
1117.3936 1249.54765
1117.5516 1255.65060
1117.7097 1254.31942
1117.8677 1255.99875
1118.0257 1259.50078
1118.1837 1244.59157
1118.3417 1258.27200
1118.4997 1259.11167
1118.6577 1252.02570
1118.8156 1251.47274
1118.9735 1246.08659
1119.1315 1242.68696
1119.2894 1256.65410
1119.4472 1243.28087
1119.6051 1253.13160
1119.7630 1242.83032
1119.9208 1254.91333
1120.0786 1240.98714
1120.2364 1254.21702
1120.3942 1247.64304
1120.5520 1246.78290
1120.7098 1249.11758
1120.8675 1254.72901
1121.0253 1254.17606
1121.1830 1247.45873
1121.3407 1244.83732
1121.4984 1261.83547
1121.6560 1257.59617
