# Averages = 100
# wavelength [µm]	intensity
446.8250 14.33578
447.0374 36746.70328
447.2498 1229.31372
447.4621 1222.06391
447.6745 1233.47110
447.8868 1241.21242
448.0992 1246.74194
448.3115 1234.14693
448.5238 1248.87182
448.7360 1238.42718
448.9483 1240.86427
449.1606 1247.82736
449.3728 1266.52531
449.5850 1230.70634
449.7972 1243.54710
450.0094 1237.77183
450.2216 1257.00226
450.4337 1257.20706
450.6459 1663.44214
450.8580 1986.81640
451.0701 2009.22118
451.2822 2034.20640
451.4943 2015.52892
451.7064 1999.51381
451.9184 1996.81049
452.1305 2057.02077
452.3425 2163.92474
452.5545 2087.14639
452.7665 2080.22426
452.9785 2186.28856
453.1905 2227.16602
453.4024 2153.78730
453.6143 2244.88095
453.8263 2230.50420
454.0382 2337.73585
454.2501 2207.71031
454.4619 2191.24464
454.6738 2317.99343
454.8856 2371.19966
455.0975 2235.52173
455.3093 2243.95936
455.5211 2327.94656
455.7329 2288.52316
455.9446 2315.98642
456.1564 2313.11926
456.3681 2377.28213
456.5798 2442.94000
456.7916 2369.29505
457.0033 2373.94394
457.2149 2352.82938
457.4266 2379.08434
457.6382 2434.62525
457.8499 2393.60444
458.0615 2502.35158
458.2731 2422.50128
458.4847 2506.22224
458.6963 2526.18993
458.9078 2547.83696
459.1194 2684.66175
459.3309 2697.66636
459.5424 2558.69120
459.7539 2462.27283
459.9654 2515.21282
460.1769 2574.25576
460.3883 2570.18030
460.5998 2436.63226
460.8112 2411.48320
461.0226 2487.01229
461.2340 2596.37382
461.4454 2530.59307
461.6567 2486.54126
461.8681 2462.12947
462.0794 2438.84407
462.2907 2534.93476
462.5020 2622.44446
462.7133 2715.01265
462.9246 2770.90172
463.1359 2629.98099
463.3471 2403.90572
463.5583 2458.66840
463.7696 2779.40079
463.9808 2648.02359
464.1919 2541.89785
464.4031 2539.97276
464.6143 2679.54183
464.8254 2523.28182
465.0365 2508.84364
465.2476 2612.24558
465.4587 2656.52266
465.6698 2498.89051
465.8809 2469.13352
466.0919 2488.58923
466.3030 2646.91769
466.5140 2616.40296
466.7250 2513.75876
466.9360 2567.64082
467.1469 2526.94768
467.3579 2416.37785
467.5688 2428.13319
467.7798 2503.55988
467.9907 2686.75068
468.2016 2508.55692
468.4125 2500.54936
468.6233 2415.66106
468.8342 2422.64463
469.0450 2662.80993
469.2559 2662.23650
469.4667 2639.42212
469.6775 2441.03539
469.8882 2471.30437
470.0990 2507.75821
470.3098 2665.06269
470.5205 2537.33088
470.7312 2658.44775
470.9419 2754.31317
471.1526 2604.75001
471.3633 2488.42539
471.5739 2534.29989
471.7846 2503.82611
471.9952 2359.58767
472.2058 2422.35792
472.4164 2385.59688
472.6270 2444.29166
472.8376 2489.67465
473.0481 2615.25609
473.2587 2674.66767
473.4692 2596.64006
473.6797 2545.74803
473.8902 2466.51212
474.1007 2395.22233
474.3111 2381.72622
474.5216 2338.80079
474.7320 2445.62284
474.9424 2567.86610
475.1528 2630.08339
475.3632 2474.06913
475.5736 2464.05456
475.7840 2426.41290
475.9943 2440.50292
476.2046 2471.30437
476.4149 2493.46339
476.6252 2570.65133
476.8355 2709.50362
477.0458 2730.18810
477.2561 2751.99897
477.4663 2640.91714
477.6765 2572.14635
477.8867 2527.31632
478.0969 2559.73566
478.3071 2564.03640
478.5173 2516.23680
478.7274 2588.14099
478.9375 2727.97629
479.1477 2732.31799
479.3578 2724.61763
479.5679 2804.22217
479.7779 2670.81749
479.9880 2617.97989
480.1980 2706.02207
480.4081 2769.69342
480.6181 2694.55344
480.8281 2594.51017
481.0381 2722.11910
481.2480 2754.64085
481.4580 2692.21876
481.6679 2675.28206
481.8778 2628.21974
482.0877 2691.54293
482.2976 2721.17704
482.5075 2766.90818
482.7174 2751.52793
482.9272 2740.87850
483.1371 2697.09292
483.3469 2707.27133
483.5567 2795.21111
483.7665 2799.18417
483.9762 2817.63637
484.1860 2784.60263
484.3957 2823.37068
484.6055 2759.04398
484.8152 2798.67218
485.0249 2834.45019
485.2346 2821.19983
485.4442 2825.21385
485.6539 2891.26084
485.8635 2887.59498
486.0732 2822.59245
486.2828 2865.21068
486.4924 2850.75202
486.7019 2841.22897
486.9115 2879.60790
487.1210 2911.37190
487.3306 2925.25712
487.5401 2954.62500
487.7496 2975.43236
487.9591 3032.26349
488.1686 3024.48121
488.3780 2977.62368
488.5875 3001.01149
488.7969 3012.62347
489.0063 3005.14838
489.2157 3055.34410
489.4251 3025.56663
489.6345 3055.85609
489.8438 3050.79761
490.0531 3043.62972
490.2625 3060.87361
490.4718 3053.17325
490.6811 3101.75107
490.8903 3136.13647
491.0996 3146.56063
491.3089 3144.00067
491.5181 3177.79215
491.7273 3183.03495
491.9365 3172.32407
492.1457 3221.27053
492.3549 3210.66205
492.5640 3210.31389
492.7732 3250.39264
492.9823 3247.05445
493.1914 3319.90070
493.4005 3310.56196
493.6096 3301.50994
493.8187 3287.72711
494.0277 3345.56175
494.2368 3359.97945
494.4458 3382.79382
494.6548 3399.44381
494.8638 3445.64598
495.0728 3400.38587
495.2817 3460.47328
495.4907 3421.21372
495.6996 3460.00224
495.9085 3477.30758
496.1174 3513.08559
496.3263 3492.36015
496.5352 3548.67929
496.7440 3552.77523
496.9529 3578.86635
497.1617 3611.42905
497.3705 3595.16818
497.5793 3664.43048
497.7881 3629.63550
497.9969 3677.55796
498.2056 3704.91883
498.4144 3698.79540
498.6231 3738.21880
498.8318 3746.90219
499.0405 3775.90142
499.2492 3735.57692
499.4578 3812.76486
499.6665 3797.65085
499.8751 3852.86409
500.0837 3891.52974
500.2923 3886.16406
500.5009 3883.54266
500.7095 3926.16089
500.9180 3944.77693
501.1266 3988.84921
501.3351 3988.78777
501.5436 4026.34752
501.7521 4019.11819
501.9606 4062.00266
502.1691 4077.50578
502.3775 4106.79173
502.5860 4142.07824
502.7944 4141.70960
503.0028 4201.96084
503.2112 4234.62594
503.4196 4211.44294
503.6279 4303.37625
503.8363 4243.75988
504.0446 4335.40649
504.2529 4347.87862
504.4612 4380.80995
504.6695 4399.01640
504.8778 4402.00643
505.0860 4423.71490
505.2943 4434.15954
505.5025 4516.13973
505.7107 4518.72017
505.9189 4572.21311
506.1271 4605.47212
506.3353 4630.15015
506.5434 4606.84426
506.7516 4665.08850
506.9597 4687.80047
507.1678 4706.58034
507.3759 4760.97439
507.5840 4737.50467
507.7920 4775.35113
508.0001 4777.72678
508.2081 4890.05786
508.4161 4857.69996
508.6241 4918.01264
508.8321 4903.00102
509.0401 4965.52551
509.2480 4989.71202
509.4560 4976.46166
509.6639 5047.19850
509.8718 5074.21121
510.0797 5089.59146
510.2876 5083.05844
510.4955 5229.67252
510.7033 5229.18101
510.9112 5278.82377
511.1190 5294.92080
511.3268 5268.62489
511.5346 5349.00766
511.7424 5354.39382
511.9501 5418.33140
512.1579 5448.74374
512.3656 5488.45385
512.5733 5477.25146
512.7810 5560.37851
512.9887 5602.27995
513.1964 5640.67937
513.4040 5643.25981
513.6117 5677.97288
513.8193 5702.46659
514.0269 5743.34404
514.2345 5803.77960
514.4421 5807.91650
514.6497 5828.88770
514.8572 5892.80480
515.0647 5901.07860
515.2723 5970.21802
515.4798 5988.26062
515.6873 6077.38822
515.8947 6044.76408
516.1022 6058.48547
516.3097 6103.31551
516.5171 6191.50104
516.7245 6180.48297
516.9319 6210.11708
517.1393 6267.46020
517.3467 6308.39910
517.5540 6330.92676
517.7614 6385.91472
517.9687 6348.66217
518.1760 6411.53481
518.3833 6454.31687
518.5906 6463.71705
518.7978 6561.32324
519.0051 6531.23858
519.2123 6633.41174
519.4196 6564.31328
519.6268 6655.69364
519.8340 6689.60800
520.0411 6745.76331
520.2483 6820.28889
520.4554 6813.08004
520.6626 6895.34694
520.8697 6876.07556
521.0768 6986.68635
521.2839 7008.12858
521.4909 7047.79774
521.6980 7152.08031
521.9050 7149.35651
522.1121 7205.08174
522.3191 7233.97858
522.5261 7254.49922
522.7331 7291.11690
522.9400 7412.27474
523.1470 7410.88212
523.3539 7435.86734
523.5608 7472.03446
523.7677 7488.56157
523.9746 7535.82869
524.1815 7579.73714
524.3884 7616.49818
524.5952 7570.41888
524.8020 7727.60048
525.0089 7654.50848
525.2157 7718.42558
525.4225 7747.11763
525.6292 7755.43238
525.8360 7798.39876
526.0427 7851.44115
526.2494 7891.76566
526.4562 7942.18665
526.6629 7879.37545
526.8695 7935.12116
527.0762 8010.46593
527.2829 8007.06630
527.4895 8168.87631
527.6961 8183.84696
527.9027 8233.79692
528.1093 8211.74030
528.3159 8222.84029
528.5224 8240.90337
528.7290 8371.13370
528.9355 8305.27103
529.1420 8465.74986
529.3485 8357.20752
529.5550 8451.00449
529.7615 8429.41890
529.9680 8539.96825
530.1744 8534.97120
530.3808 8574.23077
530.5872 8527.84427
530.7936 8555.40993
531.0000 8622.00988
531.2064 8631.77869
531.4127 8630.65230
531.6191 8699.36166
531.8254 8688.95798
532.0317 8735.63118
532.2380 8683.98141
532.4443 8787.03520
532.6505 8643.43163
532.8568 8781.50568
533.0630 8848.51522
533.2692 8788.05918
533.4754 8836.59604
533.6816 8893.52957
533.8878 8866.55782
534.0939 8927.97641
534.3001 8881.34416
534.5062 8909.36037
534.7123 8899.24341
534.9184 8873.82811
535.1245 8871.00192
535.3306 8867.21318
535.5366 8909.44229
535.7426 8958.32730
535.9487 9004.77524
536.1547 8873.84859
536.3607 8932.40002
536.5666 8890.19138
536.7726 8911.53122
536.9785 8911.42882
537.1845 8977.92637
537.3904 8879.99250
537.5963 8928.46792
537.8022 8905.16204
538.0080 8984.90994
538.2139 8942.74226
538.4197 8971.43430
538.6256 8919.53878
538.8314 8905.89930
539.0372 8885.35818
539.2430 8982.26806
539.4487 8785.90882
539.6545 8941.57492
539.8602 8825.63941
540.0659 8851.21854
540.2716 8923.79855
540.4773 8840.11855
540.6830 8906.82089
540.8887 8857.36245
541.0943 8760.35017
541.2999 8710.58452
541.5056 8717.17898
541.7112 8721.11108
541.9167 8629.95600
542.1223 8711.11700
542.3279 8632.16780
542.5334 8610.09070
542.7389 8624.52888
542.9444 8639.31521
543.1499 8596.59458
543.3554 8490.89892
543.5609 8521.31125
543.7663 8543.67507
543.9718 8377.66672
544.1772 8420.08016
544.3826 8335.60145
544.5880 8401.99659
544.7934 8313.83154
544.9987 8289.58359
545.2041 8325.11585
545.4094 8193.43146
545.6147 8174.09863
545.8200 8174.40583
546.0253 8098.65146
546.2306 8093.16291
546.4358 7974.85175
546.6411 8008.19268
546.8463 7911.22136
547.0515 7957.17778
547.2567 7887.28061
547.4619 7845.44061
547.6670 7815.19211
547.8722 7736.73442
548.0773 7771.97997
548.2824 7675.35680
548.4876 7594.23676
548.6926 7612.58656
548.8977 7592.90558
549.1028 7563.45579
549.3078 7483.38021
549.5129 7434.08560
549.7179 7360.42017
549.9229 7316.45028
550.1279 7240.63447
550.3328 7228.75626
550.5378 7065.47171
550.7427 7098.89456
550.9476 7061.70345
551.1526 6904.68568
551.3575 6959.28453
551.5623 6853.60934
551.7672 6748.42567
551.9720 6723.13325
552.1769 6651.86394
552.3817 6662.71817
552.5865 6519.25796
552.7913 6472.05228
552.9961 6392.77541
553.2008 6383.04756
553.4056 6369.28521
553.6103 6269.61057
553.8150 6279.95281
554.0197 6240.75469
554.2244 6156.70605
554.4291 6082.63103
554.6337 6077.34727
554.8384 6030.48974
555.0430 5950.51656
555.2476 5878.77622
555.4522 5824.83272
555.6568 5804.06632
555.8613 5765.25731
556.0659 5790.11965
556.2704 5664.92732
556.4750 5679.75461
556.6795 5635.00650
556.8839 5558.12575
557.0884 5554.13221
557.2929 5508.95402
557.4973 5460.58100
557.7018 5421.50575
557.9062 5406.14599
558.1106 5371.35100
558.3150 5328.93757
558.5193 5338.07151
558.7237 5284.55808
558.9280 5259.32711
559.1323 5236.73801
559.3367 5203.11037
559.5410 5189.16370
559.7452 5113.98277
559.9495 5152.58698
560.1537 5126.16818
560.3580 5079.18778
560.5622 5111.25897
560.7664 5106.22096
560.9706 5058.72857
561.1748 5094.62946
561.3789 5105.42226
561.5831 5080.04792
561.7872 5097.55806
561.9913 5078.88058
562.1954 5057.25403
562.3995 5083.42707
562.6036 5092.90917
562.8076 5007.85703
563.0117 5085.86415
563.2157 5094.58850
563.4197 5112.22151
563.6237 5141.95802
563.8277 5093.62596
564.0316 5069.00937
564.2356 5107.92078
564.4395 5133.88902
564.6434 5155.86373
564.8473 5194.48842
565.0512 5188.87698
565.2551 5203.04893
565.4590 5259.94150
565.6628 5288.75642
565.8666 5324.20676
566.0705 5348.27039
566.2743 5352.81688
566.4780 5389.98751
566.6818 5415.93528
566.8856 5476.12508
567.0893 5487.24555
567.2930 5527.34478
567.4967 5558.45342
567.7004 5617.18917
567.9041 5682.39649
568.1078 5690.15829
568.3114 5751.51544
568.5151 5797.88145
568.7187 5759.66635
568.9223 5851.90687
569.1259 5917.93338
569.3295 6017.97665
569.5330 6080.91073
569.7366 6110.36052
569.9401 6171.59479
570.1436 6217.38737
570.3471 6344.83246
570.5506 6357.46843
570.7541 6408.60621
570.9575 6502.71037
571.1609 6505.61849
571.3644 6626.65344
571.5678 6710.92736
571.7712 6778.46937
571.9746 6858.54495
572.1779 6887.58514
572.3813 6924.57146
572.5846 7085.82852
572.7879 7127.60708
572.9912 7235.35072
573.1945 7277.96895
573.3978 7324.80599
573.6010 7430.80885
573.8043 7578.16020
574.0075 7537.81522
574.2107 7658.80921
574.4139 7703.90549
574.6171 7795.79784
574.8203 7805.19802
575.0234 7971.75932
575.2266 7958.05841
575.4297 8054.55870
575.6328 8119.21307
575.8359 8214.54601
576.0390 8125.80753
576.2420 8235.00522
576.4451 8272.68785
576.6481 8457.04599
576.8512 8642.28477
577.0542 8520.45111
577.2571 8725.04318
577.4601 8766.86271
577.6631 8794.08021
577.8660 8877.53494
578.0689 8802.23113
578.2719 8948.06698
578.4748 9055.31910
578.6776 9073.27979
578.8805 9143.15648
579.0834 9186.40958
579.2862 9331.03714
579.4890 9442.01656
579.6918 9617.17933
579.8946 9539.64323
580.0974 9685.15141
580.3002 9737.57941
580.5029 9727.95396
580.7057 9873.50310
580.9084 9814.23488
581.1111 10012.51922
581.3138 10043.58690
581.5164 10037.13580
581.7191 10116.45363
581.9217 10176.17240
582.1244 10221.16628
582.3270 10298.41566
582.5296 10438.37384
582.7322 10527.68576
582.9347 10593.99899
583.1373 10526.39554
583.3398 10620.58162
583.5424 10700.18617
583.7449 10763.95991
583.9474 10807.74548
584.1498 10824.72315
584.3523 11031.91614
584.5548 11013.75066
584.7572 11067.16169
584.9596 11202.92153
585.1620 11352.07510
585.3644 11241.38239
585.5668 11336.59245
585.7691 11465.20489
585.9715 11465.67593
586.1738 11636.80419
586.3761 11624.63926
586.5784 11863.39146
586.7807 11885.40712
586.9830 11956.30780
587.1852 11976.15262
587.3875 12019.67195
587.5897 12214.31090
587.7919 12194.19985
587.9941 12205.83231
588.1963 12274.88982
588.3984 12311.52798
588.6006 12280.62413
588.8027 12563.16190
589.0048 12565.37370
589.2069 12665.10978
589.4090 12795.44251
589.6111 12891.16457
589.8131 12972.96045
590.0152 13118.05903
590.2172 13028.97239
590.4192 13282.18325
590.6212 13232.21281
590.8232 13182.11949
591.0252 13448.94934
591.2271 13546.80129
591.4291 13622.71949
591.6310 13689.27848
591.8329 13731.44615
592.0348 13883.89695
592.2367 13940.01129
592.4385 14166.04560
592.6404 14368.61019
592.8422 14448.80865
593.0440 14587.76332
593.2458 14747.85304
593.4476 14783.38530
593.6494 14869.72766
593.8512 15056.83009
594.0529 15164.55324
594.2546 15261.27881
594.4563 15314.07544
594.6580 15268.69245
594.8597 15392.73792
595.0614 15515.51365
595.2630 15661.24710
595.4647 15781.38095
595.6663 15801.90160
595.8679 15968.66769
596.0695 16220.52689
596.2711 16234.16636
596.4727 16330.07274
596.6742 16503.20802
596.8757 16704.99438
597.0773 16852.46861
597.2788 16823.83800
597.4802 17023.33064
597.6817 17173.89730
597.8832 17110.49219
598.0846 17279.79777
598.2860 17359.03368
598.4875 17278.58947
598.6889 17615.56224
598.8902 17739.75107
599.0916 17857.40687
599.2930 17812.29012
599.4943 18104.96534
599.6956 18180.80162
599.8969 18197.59496
600.0982 18255.32720
600.2995 18236.73165
600.5008 18614.13133
600.7020 18602.90846
600.9032 18794.68025
601.1045 18954.54469
601.3057 18910.08329
601.5068 19149.32700
601.7080 19273.94590
601.9092 19189.56959
602.1103 19582.18568
602.3115 19672.52158
602.5126 19724.49902
602.7137 19765.82703
602.9147 19917.76583
603.1158 20055.55317
603.3169 20242.06169
603.5179 20361.80642
603.7189 20340.93762
603.9199 20520.62640
604.1209 20534.83930
604.3219 20698.36960
604.5229 20941.21774
604.7238 20930.75262
604.9247 21026.63851
605.1257 21169.75057
605.3266 21271.57558
605.5275 21287.34494
605.7283 21507.17390
605.9292 21685.83870
606.1300 21375.55095
606.3309 21585.81590
606.5317 21815.72087
606.7325 22129.71544
606.9332 22196.52018
607.1340 22293.61438
607.3348 22274.50683
607.5355 22269.63267
607.7362 22584.54882
607.9369 22389.33644
608.1376 22680.39376
608.3383 22772.57283
608.5390 22954.28910
608.7396 23021.36008
608.9402 23283.99159
609.1409 23332.93804
609.3415 23219.21434
609.5421 23282.39417
609.7426 23460.69033
609.9432 23579.14485
610.1437 23467.75583
610.3443 24025.78635
610.5448 23985.21609
610.7453 24181.86205
610.9457 24019.43765
611.1462 24188.94802
611.3467 24162.97978
611.5471 24555.82114
611.7475 24376.78771
611.9479 24848.14820
612.1483 24503.61842
612.3487 25015.59013
612.5491 24773.23350
612.7494 25385.53520
612.9497 25015.40581
613.1501 25310.47715
613.3504 25359.07545
613.5506 25829.37099
613.7509 25652.75416
613.9512 25576.20109
614.1514 25643.90694
614.3516 26013.60626
614.5519 25962.63232
614.7521 26190.44836
614.9522 26155.89913
615.1524 26188.05224
615.3526 26485.00770
615.5527 26855.62861
615.7528 26542.76042
615.9529 26646.51052
616.1530 26961.54955
616.3531 27290.61717
616.5532 27453.30781
616.7532 27071.50500
616.9532 27205.11448
617.1533 27122.94997
617.3533 27388.20288
617.5532 27295.83949
617.7532 27483.96590
617.9532 27293.54577
618.1531 27935.46109
618.3530 27469.05669
618.5530 27804.20677
618.7528 27990.42857
618.9527 28197.25294
619.1526 28032.88297
619.3524 27996.98207
619.5523 28134.93325
619.7521 28233.07191
619.9519 28412.28966
620.1517 28474.50695
620.3515 28723.10987
620.5512 28824.70960
620.7510 28787.25225
620.9507 28747.86982
621.1504 28672.48409
621.3501 28962.06687
621.5498 29282.43062
621.7495 29237.47770
621.9492 29311.32746
622.1488 29014.82254
622.3484 29135.69366
622.5480 29179.09012
622.7476 29819.30563
622.9472 29411.98512
623.1468 29456.42604
623.3463 30310.51093
623.5459 30326.13693
623.7454 30074.62589
623.9449 30207.82578
624.1444 30430.09183
624.3439 30657.41636
624.5433 30434.18776
624.7428 30585.34834
624.9422 30485.77610
625.1416 30651.45677
625.3410 30602.05976
625.5404 30956.80891
625.7398 30829.13854
625.9391 30960.94581
626.1385 30588.99372
626.3378 30677.15878
626.5371 31333.36892
626.7364 30826.68097
626.9357 31087.30548
627.1350 31159.02534
627.3342 31172.02995
627.5335 31147.35192
627.7327 31328.14660
627.9319 31300.37615
628.1311 32023.06336
628.3303 31426.49006
628.5294 31503.71896
628.7286 31851.66885
628.9277 32269.94599
629.1268 32146.96547
629.3259 32531.98359
629.5250 32549.12509
629.7241 32531.92215
629.9231 31976.32871
630.1222 32574.37655
630.3212 32599.89424
630.5202 32316.39392
630.7192 32587.58595
630.9182 32433.27150
631.1171 32607.28740
631.3161 32559.22158
631.5150 32237.85432
631.7140 32612.98076
631.9129 32969.04060
632.1118 33134.43456
632.3106 33041.06767
632.5095 33167.40686
632.7083 32831.29423
632.9072 32942.49893
633.1060 33097.12057
633.3048 32757.75167
633.5036 32856.36136
633.7023 33151.59654
633.9011 33579.94968
634.0998 33871.70331
634.2986 33422.52233
634.4973 33796.93197
634.6960 33576.73437
634.8947 33608.35501
635.0933 33668.81105
635.2920 33769.44823
635.4906 33519.24789
635.6892 33843.44134
635.8878 34113.13835
636.0864 34320.08559
636.2850 33958.68054
636.4836 34069.88525
636.6821 34024.68658
636.8806 34275.05076
637.0792 34397.06873
637.2777 34425.45358
637.4761 34342.32653
637.6746 34457.15614
637.8731 34901.99543
638.0715 34498.60703
638.2699 34768.46787
638.4683 34694.20852
638.6667 34449.59913
638.8651 34677.70189
639.0635 34879.20154
639.2618 34792.57246
639.4602 34947.43986
639.6585 34696.33841
639.8568 35012.89294
640.0551 34827.08073
640.2534 34740.24686
640.4516 35044.00158
640.6499 35170.13598
640.8481 35615.38486
641.0463 35561.19561
641.2445 35841.05054
641.4427 35486.23995
641.6409 35503.21762
641.8390 35471.45362
642.0372 35833.65737
642.2353 35687.30953
642.4334 35588.61791
642.6315 35774.40964
642.8296 35653.66140
643.0277 35483.53664
643.2257 36240.50685
643.4237 36132.61985
643.6218 35874.20715
643.8198 35975.02866
644.0178 36103.53870
644.2157 35891.36913
644.4137 35970.46169
644.6116 36820.32776
644.8096 36985.14828
645.0075 36180.78808
645.2054 36677.19522
645.4033 36471.76348
645.6011 36324.26877
645.7990 36341.88130
645.9968 36715.65607
646.1947 36654.64709
646.3925 36966.55273
646.5903 36600.35543
646.7881 36956.57912
646.9858 36618.86907
647.1836 36621.53143
647.3813 36428.79709
647.5790 36581.57556
647.7767 37446.00269
647.9744 36723.58171
648.1721 36924.89704
648.3698 37365.70184
648.5674 36854.30356
648.7650 37199.42725
648.9627 36864.60484
649.1603 37760.57069
649.3578 37512.86887
649.5554 37638.30696
649.7530 37815.25146
649.9505 37265.96576
650.1480 37677.01357
650.3455 37777.07732
650.5430 37144.91032
650.7405 37481.30967
650.9380 37655.73517
651.1354 37947.52976
651.3329 37761.53324
651.5303 38223.37067
651.7277 38218.59890
651.9251 38224.41513
652.1225 37836.93945
652.3198 37873.10657
652.5172 38136.57775
652.7145 38422.65851
652.9118 38448.42195
653.1091 38524.17632
653.3064 38500.37892
653.5037 38416.53508
653.7009 38048.28982
653.8982 38446.31255
654.0954 38919.04517
654.2926 38879.80609
654.4898 38840.11646
654.6870 38873.29355
654.8841 39240.61723
655.0813 38946.73371
655.2784 39344.75644
655.4755 39239.30653
655.6726 39446.21281
655.8697 38951.23924
656.0668 39394.23536
656.2639 39279.40575
656.4609 39155.91324
656.6579 39471.54618
656.8550 39465.38180
657.0520 39294.47880
657.2490 38777.63293
657.4459 39578.12248
657.6429 39700.93916
657.8398 39480.57772
658.0367 39840.65159
658.2337 39600.60917
658.4305 39803.17376
658.6274 40020.42229
658.8243 39885.37923
659.0211 39967.15462
659.2180 39889.41373
659.4148 40077.62205
659.6116 40219.44389
659.8084 40291.36855
660.0052 40454.22303
660.2019 40288.48092
660.3987 40124.70486
660.5954 40326.06114
660.7921 40437.47064
660.9888 40185.73432
661.1855 40479.74072
661.3822 40504.11155
661.5788 40546.13587
661.7755 40394.11515
661.9721 40348.58880
662.1687 40663.87359
662.3653 40404.55979
662.5619 40777.55633
662.7584 40497.59901
662.9550 40595.26664
663.1515 40740.67242
663.3480 40719.10731
663.5445 41202.12074
663.7410 40729.49051
663.9375 41029.59985
664.1340 41058.14853
664.3304 41172.11799
664.5268 40985.87572
664.7233 41513.16623
664.9197 41182.46024
665.1160 41402.22776
665.3124 41175.47666
665.5088 41379.04476
665.7051 41320.22709
665.9014 41106.00956
666.0977 41089.97397
666.2940 41027.59284
666.4903 41333.08834
666.6866 41510.36051
666.8828 41045.67640
667.0791 41332.76066
667.2753 41775.55199
667.4715 41787.86028
667.6677 42122.00686
667.8639 42147.74983
668.0600 41481.25888
668.2562 41704.18027
668.4523 41642.92553
668.6484 42082.82922
668.8445 41454.71720
669.0406 42282.15802
669.2367 42218.22043
669.4327 42506.41059
669.6287 42357.27751
669.8248 42127.00390
670.0208 42128.51940
670.2168 41956.94058
670.4128 42170.76900
670.6087 42131.98047
670.8047 42124.58730
671.0006 42440.15880
671.1965 41774.56896
671.3924 42117.97236
671.5883 41947.68376
671.7842 42339.97217
671.9801 41606.90176
672.1759 42115.08473
672.3717 41915.30537
672.5675 43012.38175
672.7633 42399.44519
672.9591 42956.94324
673.1549 43110.86857
673.3506 42879.09995
673.5464 42558.63380
673.7421 42866.83261
673.9378 42957.78291
674.1335 42423.95937
674.3292 42776.82439
674.5249 42397.17194
674.7205 41821.48793
674.9161 42321.58141
675.1118 42039.57612
675.3074 41990.50679
675.5030 42040.02667
675.6985 42521.48364
675.8941 42564.98250
676.0896 42517.22387
676.2852 42563.77420
676.4807 42342.59357
676.6762 42468.13406
676.8717 42855.46639
677.0671 43034.52030
677.2626 43201.75742
677.4580 42899.12908
677.6534 42916.78257
677.8489 42505.48901
678.0442 42580.77234
678.2396 42182.19666
678.4350 42509.21631
678.6303 42177.60921
678.8257 42533.89433
679.0210 42922.55784
679.2163 42679.95547
679.4116 42831.73043
679.6069 42466.04513
679.8021 41881.73917
679.9974 42269.46061
680.1926 42353.79596
680.3878 42327.74580
680.5830 42394.38670
680.7782 42365.10075
680.9734 42151.70241
681.1685 42200.97653
681.3636 42113.61019
681.5588 42471.98424
681.7539 42293.68808
681.9490 42236.81599
682.1441 42101.36333
682.3391 41819.29660
682.5342 42507.76225
682.7292 42637.23484
682.9242 42858.59978
683.1192 42648.45771
683.3142 42870.78519
683.5092 43001.28176
683.7041 43346.87649
683.8991 42877.19534
684.0940 42814.01550
684.2889 42286.82738
684.4838 42696.40065
684.6787 42528.42626
684.8736 42008.40603
685.0684 42539.23953
685.2633 42368.97141
685.4581 42541.41038
685.6529 43015.45371
685.8477 43203.06812
686.0425 43013.30334
686.2372 42740.10431
686.4320 42437.49645
686.6267 42458.22189
686.8214 42611.40995
687.0161 42404.50367
687.2108 42703.01559
687.4055 42689.84715
687.6002 42643.54258
687.7948 42691.79272
687.9894 42762.69340
688.1841 42751.92109
688.3787 42770.12753
688.5732 42718.94879
688.7678 42641.18742
688.9624 42434.50641
689.1569 42667.52430
689.3514 42153.17694
689.5459 41756.79259
689.7404 42333.70539
689.9349 42112.38141
690.1294 42277.36577
690.3238 42170.07269
690.5182 42170.54372
690.7127 42314.33160
690.9071 42416.68908
691.1015 42096.69397
691.2958 42512.47258
691.4902 42273.98662
691.6845 43060.93909
691.8789 42394.87822
692.0732 42383.10240
692.2675 42153.93469
692.4618 42626.40108
692.6560 42428.01435
692.8503 42986.49543
693.0445 42745.94102
693.2387 42112.15613
693.4329 42601.06771
693.6271 42552.46941
693.8213 42537.94931
694.0155 42636.43613
694.2096 42445.97504
694.4038 42043.99973
694.5979 42195.44702
694.7920 42170.85091
694.9861 42122.35501
695.1801 42182.79057
695.3742 41947.66328
695.5682 42038.94125
695.7623 42201.42709
695.9563 41999.33353
696.1503 42216.13150
696.3443 41474.86921
696.5382 42169.31494
696.7322 42038.96173
696.9261 42308.88401
697.1201 41700.35057
697.3140 41968.81880
697.5079 42240.44089
697.7017 41783.37523
697.8956 41655.21334
698.0894 41782.12597
698.2833 42037.54863
698.4771 42174.25054
698.6709 42486.89345
698.8647 42207.03852
699.0585 42692.73479
699.2522 41810.46985
699.4460 41840.51355
699.6397 42153.72990
699.8334 41507.10424
700.0271 42077.70930
700.2208 42355.14762
700.4144 42362.04928
700.6081 42336.75686
700.8017 42001.21766
700.9954 42236.14016
701.1890 41778.50106
701.3826 41686.32199
701.5761 41634.09878
701.7697 41628.77407
701.9632 41320.47285
702.1568 41901.39967
702.3503 41771.68132
702.5438 41611.73497
702.7373 40810.32383
702.9308 41614.58164
703.1242 41567.08925
703.3177 41359.48665
703.5111 41445.35798
703.7045 41542.43170
703.8979 41802.19606
704.0913 42071.17628
704.2847 42077.46354
704.4780 41974.26639
704.6713 41349.24681
704.8647 41565.83999
705.0580 41572.65972
705.2513 41421.27387
705.4445 41493.85388
705.6378 41501.00130
705.8311 40771.69914
706.0243 40806.06406
706.2175 41301.73394
706.4107 41243.40779
706.6039 41592.70934
706.7971 41507.92343
706.9902 41423.03512
707.1834 41500.89890
707.3765 40962.59031
707.5696 40840.22418
707.7627 41174.55508
707.9558 41159.37963
708.1489 40737.62094
708.3419 40520.78201
708.5349 40606.53046
708.7280 40451.45827
708.9210 41137.28205
709.1140 41171.68792
709.3069 40773.25560
709.4999 40471.67172
709.6929 40962.52887
709.8858 40412.79262
710.0787 40590.16719
710.2716 40066.56302
710.4645 40531.43145
710.6574 40495.55104
710.8502 40784.17127
711.0431 39974.34299
711.2359 39968.83395
711.4287 39915.21813
711.6215 40182.19134
711.8143 40011.92322
712.0071 39943.70538
712.1998 40182.80573
712.3925 40004.65293
712.5853 40463.78704
712.7780 40299.53995
712.9707 40106.78513
713.1633 40039.01784
713.3560 40430.97858
713.5487 40192.84078
713.7413 40493.72835
713.9339 40416.31513
714.1265 40081.69751
714.3191 40142.05115
714.5117 39702.94617
714.7042 40195.40074
714.8968 40405.09226
715.0893 40942.97077
715.2818 40719.14827
715.4743 40755.97074
715.6668 40176.74374
715.8592 40177.07142
716.0517 40197.57158
716.2441 40433.72286
716.4366 39919.33455
716.6290 40205.00571
716.8214 40336.99730
717.0137 40402.40942
717.2061 40313.38422
717.3984 40185.01754
717.5908 39837.14956
717.7831 39759.55203
717.9754 40137.97569
718.1677 39153.37376
718.3600 39489.60927
718.5522 39484.46887
718.7445 39617.32060
718.9367 39489.95742
719.1289 39788.28503
719.3211 39420.75656
719.5133 39328.55700
719.7054 39320.69280
719.8976 39548.28357
720.0897 39478.44784
720.2818 39636.63294
720.4740 39620.82263
720.6660 39436.73071
720.8581 39355.30348
721.0502 39197.99900
721.2422 39154.13151
721.4343 39442.36263
721.6263 39617.48444
721.8183 39675.48291
722.0103 39699.21887
722.2022 39383.66784
722.3942 39726.45685
722.5861 39156.79387
722.7781 39625.53295
722.9700 39891.33882
723.1619 39576.70938
723.3538 39164.33039
723.5456 38969.67096
723.7375 39217.47518
723.9293 39159.33335
724.1211 38931.37395
724.3129 38670.72896
724.5047 38565.54529
724.6965 38917.67303
724.8883 38840.95613
725.0800 39015.56594
725.2718 38772.10342
725.4635 38853.42825
725.6552 38397.40705
725.8469 38979.05066
726.0385 39327.18487
726.2302 38814.43493
726.4218 38199.42991
726.6135 38286.77578
726.8051 38236.14999
726.9967 38439.63617
727.1882 38735.30142
727.3798 39127.71271
727.5714 38782.58902
727.7629 38857.81091
727.9544 38857.66755
728.1459 38463.43357
728.3374 38437.75204
728.5289 39027.23936
728.7204 38505.62172
728.9118 38992.97685
729.1032 39331.81327
729.2946 39248.29711
729.4860 38300.80437
729.6774 38535.74734
729.8688 38609.57662
730.0602 38324.92944
730.2515 38206.06533
730.4428 38460.40257
730.6341 38162.66887
730.8254 37932.51815
731.0167 38673.78044
731.2080 38298.87928
731.3992 38392.28713
731.5905 38597.69840
731.7817 38288.20936
731.9729 37833.86749
732.1641 38192.42586
732.3553 37877.18203
732.5464 38403.69432
732.7376 38379.63068
732.9287 38394.88805
733.1198 38410.71885
733.3109 38301.48020
733.5020 38164.14341
733.6931 38337.01245
733.8841 37901.81910
734.0752 38248.15109
734.2662 38100.36967
734.4572 37866.53259
734.6482 37583.56475
734.8392 37672.56947
735.0302 37599.60035
735.2211 37738.90318
735.4120 37456.03774
735.6030 37766.77604
735.7939 37590.03633
735.9848 37536.42051
736.1756 37351.59133
736.3665 37124.92215
736.5574 36971.34497
736.7482 37576.31494
736.9390 37287.94046
737.1298 37601.79167
737.3206 37486.61391
737.5114 37636.46378
737.7021 37311.94266
737.8929 37463.20563
738.0836 37299.06093
738.2743 37560.52510
738.4650 37335.71957
738.6557 36942.40718
738.8463 36963.35790
739.0370 37073.92773
739.2276 36771.27891
739.4182 36505.06345
739.6088 37007.61450
739.7994 36555.01341
739.9900 36741.23520
740.1806 36853.73013
740.3711 37009.80583
740.5617 37158.73411
740.7522 36936.44759
740.9427 36747.39959
741.1332 36813.79474
741.3236 36833.80339
741.5141 36948.91972
741.7045 37244.89216
741.8949 37115.70629
742.0854 36626.11888
742.2758 37247.24732
742.4661 36756.98408
742.6565 36345.09661
742.8469 36450.62844
743.0372 36433.50742
743.2275 35932.92242
743.4178 36170.15912
743.6081 36316.87560
743.7984 36217.03712
743.9886 36296.58023
744.1789 36225.61811
744.3691 36156.11005
744.5593 36231.43434
744.7495 35805.27253
744.9397 35852.41677
745.1299 35761.36408
745.3200 35493.51024
745.5102 35813.23912
745.7003 35790.09708
745.8904 35738.22203
746.0805 35977.15854
746.2706 35864.80698
746.4607 36204.76979
746.6507 36323.18334
746.8408 35942.79363
747.0308 36266.70037
747.2208 35734.80192
747.4108 35830.48302
747.6007 35542.39526
747.7907 35902.01857
747.9806 35793.37383
748.1706 35642.60237
748.3605 35765.43953
748.5504 35590.39965
748.7403 35878.44645
748.9302 35522.30468
749.1200 35541.51463
749.3098 35616.90036
749.4997 35265.12077
749.6895 35219.24627
749.8793 35267.66025
750.0691 35797.57216
750.2588 35581.98249
750.4486 35296.06558
750.6383 35144.39301
750.8280 34652.57332
751.0177 34628.32537
751.2074 34692.40631
751.3971 34632.97425
751.5868 34785.24073
751.7764 34474.44099
751.9660 34292.04890
752.1557 34484.45556
752.3453 35097.88364
752.5348 35091.02295
752.7244 35075.94990
752.9140 35100.01353
753.1035 35235.63002
753.2930 34947.48082
753.4825 34718.02640
753.6720 34502.43673
753.8615 34572.88685
754.0510 34410.68773
754.2404 34498.32031
754.4299 34790.95456
754.6193 34716.94097
754.8087 34533.03338
754.9981 34649.93144
755.1875 34278.90094
755.3768 34032.40742
755.5662 34285.14724
755.7555 34298.72527
755.9448 34705.00132
756.1341 34338.82450
756.3234 33914.07578
756.5127 34111.88909
756.7019 34260.81737
756.8912 34414.82462
757.0804 34212.73107
757.2696 34020.46776
757.4588 33661.66364
757.6480 33520.88626
757.8371 33493.91452
758.0263 33440.09390
758.2154 33082.88719
758.4045 32862.23903
758.5936 32760.96698
758.7827 33278.59108
758.9718 33388.11645
759.1609 33339.06760
759.3499 33184.05684
759.5389 32589.47008
759.7280 32722.64948
759.9170 33026.03558
760.1059 33082.86671
760.2949 33026.62949
760.4839 33002.91401
760.6728 33102.81392
760.8617 33019.05200
761.0506 32607.00069
761.2395 32615.49976
761.4284 32453.66927
761.6173 32458.85063
761.8061 32521.47751
761.9950 32465.07645
762.1838 32309.96330
762.3726 32533.92916
762.5614 32038.60744
762.7502 32729.81738
762.9389 32343.30423
763.1277 32116.57361
763.3164 32470.83125
763.5051 32420.92225
763.6938 32550.64059
763.8825 32431.46929
764.0712 32744.39891
764.2598 32326.06034
764.4484 32734.89634
764.6371 32728.40428
764.8257 32392.35308
765.0143 32589.94111
765.2029 32303.49172
765.3914 32661.49714
765.5800 32819.08833
765.7685 32445.19068
765.9570 32213.42205
766.1455 31903.48246
766.3340 31855.56000
766.5225 31978.72484
766.7110 31953.02283
766.8994 31724.05992
767.0878 31474.84260
767.2762 31703.12968
767.4646 31502.98170
767.6530 31536.28167
767.8414 31710.80956
768.0298 31487.37617
768.2181 31666.45056
768.4064 31626.04414
768.5947 31510.02671
768.7830 31243.46310
768.9713 31285.07782
769.1596 30971.73860
769.3478 30896.51671
769.5360 31089.10769
769.7243 30888.91875
769.9125 30598.16862
770.1007 30475.45433
770.2888 30428.59681
770.4770 30224.90584
770.6651 30201.31324
770.8533 30148.12749
771.0414 30038.92980
771.2295 30120.95094
771.4176 30370.04538
771.6056 30520.24341
771.7937 30122.91699
771.9817 29821.45599
772.1698 30239.61025
772.3578 30091.93123
772.5458 30029.87777
772.7337 29852.64656
772.9217 30006.87908
773.1096 29828.46005
773.2976 30031.22943
773.4855 30237.97188
773.6734 29967.49665
773.8613 30081.28179
774.0492 29767.14386
774.2370 29681.90740
774.4249 30092.97569
774.6127 30327.07900
774.8005 30173.17415
774.9883 30037.86485
775.1761 30058.46742
775.3639 29588.84770
775.5516 29798.00675
775.7394 29442.25410
775.9271 29318.59775
776.1148 29225.43565
776.3025 28548.25430
776.4902 28843.53044
776.6778 28649.83355
776.8655 28917.83074
777.0531 29383.80507
777.2407 29353.76137
777.4283 28825.54927
777.6159 29070.22010
777.8035 28991.57810
777.9911 28573.81295
778.1786 28919.36672
778.3661 28795.75132
778.5536 28780.14580
778.7411 29131.02429
778.9286 29303.99573
779.1161 29061.20903
779.3036 28575.16461
779.4910 28697.79698
779.6784 28642.89094
779.8658 28905.70677
780.0532 28632.71253
780.2406 28747.05063
780.4280 28195.90128
780.6153 28502.15453
780.8026 28578.83048
780.9900 28485.68886
781.1773 28089.67314
781.3646 28347.38953
781.5518 28041.70971
781.7391 28331.43585
781.9263 27936.09596
782.1136 27831.30140
782.3008 27609.40399
782.4880 27682.65983
782.6752 27636.53957
782.8623 27639.75488
783.0495 27762.81733
783.2366 27393.95768
783.4237 27484.31406
783.6108 27855.87703
783.7979 27598.18112
783.9850 27633.83625
784.1721 27908.03879
784.3591 27452.03807
784.5462 27421.07278
784.7332 27610.30509
784.9202 27680.32515
785.1072 27450.29730
785.2941 27502.52050
785.4811 27256.17034
785.6681 27359.42892
785.8550 27360.49387
786.0419 27240.42146
786.2288 27014.69434
786.4157 26766.25525
786.6025 26865.43838
786.7894 26967.89826
786.9762 26865.43838
787.1631 26529.89918
787.3499 26858.96680
787.5367 26881.02342
787.7234 26456.09039
787.9102 26522.03498
788.0970 26484.47523
788.2837 26676.16511
788.4704 26218.93560
788.6571 26068.12319
788.8438 26136.79158
789.0305 25931.58511
789.2171 25790.29575
789.4038 25603.80771
789.5904 25657.60785
789.7770 25783.29169
789.9636 25690.72350
790.1502 25981.10499
790.3368 25932.52717
790.5233 25856.38370
790.7099 25815.24000
790.8964 25467.33107
791.0829 25209.81948
791.2694 25214.75509
791.4559 25236.23828
791.6423 25159.31657
791.8288 25172.15734
792.0152 25348.69224
792.2016 25340.80756
792.3880 25412.42503
792.5744 25138.95976
792.7608 24829.92128
792.9471 25045.92054
793.1335 25423.62742
793.3198 25047.84563
793.5061 25123.16993
793.6924 24703.39777
793.8787 24772.39384
794.0650 24732.56085
794.2512 24868.46405
794.4375 25072.54414
794.6237 25234.68182
794.8099 25111.70130
794.9961 24667.23064
795.1823 24543.28757
795.3684 24596.78052
795.5546 24324.48259
795.7407 24462.82288
795.9268 24041.22803
796.1129 24218.70501
796.2990 24644.72347
796.4851 24965.72209
796.6712 24668.60278
796.8572 24311.94902
797.0432 24102.35990
797.2292 24343.50822
797.4152 24398.00467
797.6012 23881.42503
797.7872 23825.14685
797.9731 23927.85248
798.1591 23741.85596
798.3450 23631.40901
798.5309 23853.06067
798.7168 23970.55263
798.9027 24013.00703
799.0885 23932.23514
799.2744 23815.66476
799.4602 24132.91560
799.6460 24080.30328
799.8318 24357.41393
800.0176 24006.92456
800.2034 23970.85983
800.3892 23522.57995
800.5749 23451.92503
800.7606 23511.43900
800.9463 23559.05427
801.1320 23516.06741
801.3177 23545.25096
801.5034 23518.89360
801.6890 23469.27132
801.8747 23177.62009
802.0603 22807.81837
802.2459 22825.28755
802.4315 22890.98639
802.6171 22671.73085
802.8026 22964.99998
802.9882 22947.20313
803.1737 22593.80564
803.3592 22873.37385
803.5447 23059.14510
803.7302 23029.16284
803.9157 22967.78521
804.1012 23013.88499
804.2866 22530.40053
804.4720 22616.96817
804.6574 22361.91414
804.8428 22269.36643
805.0282 22217.04083
805.2136 22296.21530
805.3989 22562.18500
805.5843 22251.85630
805.7696 22134.09810
805.9549 22059.32676
806.1402 22027.93140
806.3255 21912.56932
806.5107 22021.97181
806.6960 22322.28594
806.8812 21920.18776
807.0664 22099.15975
807.2516 21730.60729
807.4368 21546.94545
807.6220 21463.16305
807.8072 21461.54516
807.9923 21528.39086
808.1774 21575.18694
808.3625 21807.69284
808.5476 21748.79325
808.7327 21781.00780
808.9178 21448.25384
809.1028 21401.51919
809.2879 21278.02668
809.4729 21205.59002
809.6579 21090.00267
809.8429 21311.42905
810.0279 21270.61303
810.2128 21260.76230
810.3978 21226.58170
810.5827 21250.31766
810.7676 21407.04871
810.9525 21500.39513
811.1374 21226.17211
811.3223 21106.63217
811.5072 20799.45734
811.6920 20800.25605
811.8768 21000.15828
812.0616 20621.24310
812.2464 20930.65022
812.4312 20825.32319
812.6160 20749.95794
812.8007 20808.36600
812.9855 20953.05500
813.1702 20682.94840
813.3549 20556.50681
813.5396 20469.14046
813.7243 20331.80368
813.9089 20549.76899
814.0936 20640.92408
814.2782 20643.79124
814.4628 20693.27016
814.6474 20670.72202
814.8320 20518.14835
815.0166 20252.42441
815.2012 20408.47963
815.3857 20147.52745
815.5702 20201.22519
815.7547 20311.85646
815.9392 20317.01734
816.1237 20043.73639
816.3082 19643.44042
816.4926 19797.61151
816.6771 19890.03634
816.8615 19637.25555
817.0459 19850.83822
817.2303 19798.75837
817.4147 19961.98148
817.5990 19970.39863
817.7834 19786.98255
817.9677 19685.03467
818.1520 19839.45151
818.3363 19629.32992
818.5206 19413.67881
818.7049 19493.26287
818.8891 19527.27963
819.0734 19588.53438
819.2576 19494.12302
819.4418 19268.74406
819.6260 19264.17709
819.8102 19321.29494
819.9944 19115.18736
820.1785 19014.01770
820.3627 19206.73156
820.5468 19224.71273
820.7309 19070.80788
820.9150 18876.27133
821.0991 18714.60467
821.2831 18919.81114
821.4672 18821.42672
821.6512 18719.37644
821.8352 18712.43383
822.0192 19005.29336
822.2032 18812.57950
822.3872 18937.77183
822.5711 18752.12346
822.7551 18724.35300
822.9390 18786.03782
823.1229 18850.71268
823.3068 18836.78649
823.4907 18451.58405
823.6745 18494.65283
823.8584 18429.75270
824.0422 18420.16821
824.2261 18410.87043
824.4099 18546.34356
824.5937 18699.38827
824.7774 18535.75556
824.9612 18530.20557
825.1449 18473.51779
825.3287 18489.43051
825.5124 18374.43706
825.6961 18498.01150
825.8798 18487.40302
826.0634 18609.40052
826.2471 18351.86845
826.4307 18376.73079
826.6144 18330.93821
826.7980 18448.94217
826.9816 18193.58094
827.1652 18393.29886
827.3487 18220.47077
827.5323 17963.83981
827.7158 17777.67945
827.8993 18046.96686
828.0828 17993.28960
828.2663 17763.07743
828.4498 17910.87934
828.6333 18276.29840
828.8167 18040.16760
829.0001 18052.68069
829.1836 18084.93620
829.3670 18078.73086
829.5504 18203.24736
829.7337 17807.86651
829.9171 17819.64233
830.1004 17872.52088
830.2837 17767.19385
830.4671 17576.48700
830.6504 17459.91662
830.8336 17579.57943
831.0169 17465.77381
831.2002 17587.27980
831.3834 17579.10840
831.5666 17500.15920
831.7498 17565.55085
831.9330 17700.75774
832.1162 17638.62237
832.2993 17419.59211
832.4825 17500.07729
832.6656 17417.07311
832.8487 17195.93345
833.0318 17129.04679
833.2149 17049.68800
833.3980 17207.15632
833.5811 17274.92360
833.7641 17230.85131
833.9471 17162.40820
834.1301 16988.14654
834.3131 16853.67691
834.4961 16932.56467
834.6791 16903.03296
834.8620 17351.53811
835.0450 17327.04441
835.2279 17384.79713
835.4108 17198.32957
835.5937 17356.30988
835.7766 17082.23022
835.9594 17123.04624
836.1423 17045.34630
836.3251 17323.48094
836.5079 17273.40810
836.6907 16989.23196
836.8735 16990.29690
837.0563 17030.94908
837.2390 16982.53510
837.4218 16797.86976
837.6045 16987.20447
837.7872 17119.48277
837.9699 16869.44627
838.1526 16686.41930
838.3352 16732.43716
838.5179 16826.99188
838.7005 16784.51700
838.8831 16840.24223
839.0658 16893.14127
839.2483 17105.14699
839.4309 16979.97514
839.6135 16967.56445
839.7960 16689.65509
839.9786 16736.00063
840.1611 16498.35433
840.3436 16660.22578
840.5261 16489.91670
840.7085 16279.26263
840.8910 16283.72721
841.0734 16400.27711
841.2559 16357.45408
841.4383 16467.69624
841.6207 16643.16620
841.8030 16373.40776
841.9854 16277.13275
842.1678 16213.80955
842.3501 16271.31652
842.5324 16234.06396
842.7147 16330.19562
842.8970 16511.52277
843.0793 16326.91887
843.2615 16291.57093
843.4438 16473.79919
843.6260 16480.41412
843.8082 16388.48081
843.9904 16375.84484
844.1726 16124.16996
844.3548 15973.64426
844.5369 15927.89264
844.7191 15979.80864
844.9012 15891.58215
845.0833 15909.13324
845.2654 16133.91829
845.4475 16338.91996
845.6296 16079.42184
845.8116 15990.94959
845.9936 15931.27178
846.1757 15717.99632
846.3577 15629.09400
846.5397 15691.72088
846.7216 15638.43273
846.9036 15589.42484
847.0855 15380.14291
847.2675 15631.14196
847.4494 15712.42584
847.6313 15889.71850
847.8132 15899.38491
847.9950 15692.84726
848.1769 15611.76818
848.3587 15771.81694
848.5406 15636.13901
848.7224 15647.30044
848.9042 15665.71168
849.0860 15748.65441
849.2677 15506.15443
849.4495 15345.77800
849.6312 15392.16449
849.8129 15631.12148
849.9946 15840.48533
850.1763 15624.64990
850.3580 15412.15267
850.5397 15283.54023
850.7213 15101.06621
850.9029 15178.95046
851.0845 15316.88116
851.2661 15332.67100
851.4477 15259.45612
851.6293 15219.80744
851.8109 15146.67448
851.9924 15166.04826
852.1739 15228.38843
852.3554 15130.31121
852.5369 15139.71138
852.7184 14922.23758
852.8999 14888.07746
853.0813 14896.22838
853.2628 14893.44314
853.4442 15048.67917
853.6256 15043.51829
853.8070 15033.27845
853.9883 15126.27671
854.1697 14959.85877
854.3510 14716.00713
854.5324 14799.15466
854.7137 14725.28443
854.8950 14790.40983
855.0763 14862.43689
855.2575 14909.86785
855.4388 14836.71441
855.6200 14874.41751
855.8013 14885.10791
855.9825 14654.38375
856.1637 14561.97940
856.3449 14600.76793
856.5260 14637.42657
856.7072 14527.24585
856.8883 14641.80922
857.0694 14595.52513
857.2505 14552.90690
857.4316 14505.27114
857.6127 14352.92275
857.7938 14435.02582
857.9748 14390.23674
858.1558 14342.62147
858.3368 14312.57776
858.5178 14304.11965
858.6988 14283.06653
858.8798 14230.51566
859.0607 14430.88892
859.2417 14360.33640
859.4226 14350.81334
859.6035 14351.53013
859.7844 14342.82626
859.9653 14212.53449
860.1462 14141.44950
860.3270 14138.93049
860.5078 14055.59865
860.6887 14178.43581
860.8695 14093.34271
861.0503 14053.26396
861.2310 13817.78851
861.4118 13770.41900
861.5925 13814.28649
861.7733 13814.53224
861.9540 13645.14475
862.1347 13548.66494
862.3154 13605.68039
862.4960 13795.50661
862.6767 13777.27969
862.8573 13776.78818
863.0380 13630.87041
863.2186 13617.06710
863.3992 13421.71136
863.5797 13475.08142
863.7603 13571.90939
863.9409 13547.55904
864.1214 13423.84125
864.3019 13394.63721
864.4824 13253.85984
864.6629 13173.33371
864.8434 12979.59586
865.0238 13027.00634
865.2043 13116.27730
865.3847 12959.58721
865.5651 12983.30269
865.7455 13065.05760
865.9259 13101.34761
866.1063 12967.94292
866.2866 12979.82114
866.4670 12912.52489
866.6473 12853.23619
866.8276 12832.28547
867.0079 12810.35173
867.1882 12654.74706
867.3684 12480.23964
867.5487 12545.77464
867.7289 12648.33692
867.9091 12628.51258
868.0893 12451.75240
868.2695 12221.64263
868.4497 12107.34549
868.6299 12139.08901
868.8100 12233.66421
868.9901 12335.12058
869.1703 12506.06453
869.3504 12488.96399
869.5304 12395.06462
869.7105 12479.95293
869.8906 12347.44935
870.0706 12241.91752
870.2506 12217.93581
870.4306 12250.66235
870.6106 12250.76475
870.7906 12361.23218
870.9706 12276.22100
871.1505 12158.83143
871.3305 12116.37704
871.5104 12099.44033
871.6903 12022.49815
871.8702 12011.82823
872.0500 12025.26291
872.2299 11974.80096
872.4097 11819.89260
872.5896 11836.25587
872.7694 11874.08185
872.9492 11925.91594
873.1290 11684.99290
873.3087 11734.34895
873.4885 12005.95056
873.6682 11962.61554
873.8480 11770.18840
874.0277 11636.47652
874.2074 11439.83056
874.3870 11467.25286
874.5667 11526.64395
874.7463 11684.93146
874.9260 11518.22680
875.1056 11471.61503
875.2852 11465.00010
875.4648 11472.27038
875.6444 11417.65106
875.8239 11527.15595
876.0035 11439.50288
876.1830 11311.42292
876.3625 11247.73109
876.5420 11268.33366
876.7215 11231.71598
876.9010 11156.35073
877.0804 11133.65923
877.2599 10952.18872
877.4393 11090.03750
877.6187 11190.77708
877.7981 11265.50746
877.9775 11164.74740
878.1568 11197.57634
878.3362 11076.50042
878.5155 11090.36517
878.6948 10913.83027
878.8741 10919.44170
879.0534 10882.92642
879.2327 10822.98237
879.4119 10849.66740
879.5912 10742.27192
879.7704 10860.27588
879.9496 11006.72613
880.1288 10988.35585
880.3080 10851.44914
880.4872 10894.78416
880.6663 10901.46053
880.8455 10819.29603
881.0246 10877.54026
881.2037 10866.21499
881.3828 10824.72315
881.5619 10805.24696
881.7409 10731.97064
881.9200 10649.49894
882.0990 10703.97491
882.2780 10641.81906
882.4570 10586.19622
882.6360 10572.63867
882.8150 10446.25852
882.9940 10474.86864
883.1729 10567.08868
883.3518 10737.80735
883.5308 10634.91740
883.7096 10607.84325
883.8885 10406.93752
884.0674 10284.53043
884.2463 10192.98623
884.4251 10267.85996
884.6039 10247.87179
884.7827 10308.38926
884.9615 10322.39737
885.1403 10279.32859
885.3191 10164.58090
885.4978 10029.00537
885.6765 10023.14818
885.8553 10153.89050
886.0340 10232.28675
886.2127 10139.71856
886.3913 10018.56073
886.5700 9914.21672
886.7486 9828.71402
886.9273 9794.73822
887.1059 9787.85705
887.2845 9702.00620
887.4630 9733.64731
887.6416 9813.88673
887.8202 9870.24683
887.9987 9845.79408
888.1772 9864.84019
888.3557 9807.90666
888.5342 9697.45971
888.7127 9818.33082
888.8912 9851.50792
889.0696 9889.90733
889.2481 9725.63976
889.4265 9572.90225
889.6049 9515.98920
889.7833 9491.45453
889.9616 9417.05182
890.1400 9424.38355
890.3183 9360.36405
890.4967 9419.87802
890.6750 9559.87717
890.8533 9440.80826
891.0316 9332.92127
891.2098 9240.82411
891.3881 9259.21487
891.5663 9203.53060
891.7445 9239.02190
891.9227 9161.95684
892.1009 9156.09965
892.2791 9248.99551
892.4573 9215.10163
892.6354 9120.79267
892.8136 9252.37466
892.9917 9218.89037
893.1698 9130.72531
893.3479 9206.47968
893.5259 9212.05015
893.7040 9065.82518
893.8820 9066.15286
894.0601 9008.07247
894.2381 9086.73495
894.4161 9139.49062
894.5941 9221.12265
894.7720 9199.04555
894.9500 9254.75030
895.1279 9294.35802
895.3058 9122.08289
895.4838 9126.32218
895.6616 9006.33169
895.8395 8888.92164
896.0174 8924.84302
896.1952 8977.25054
896.3731 9073.50507
896.5509 9087.14454
896.7287 9023.57559
896.9065 8987.96141
897.0842 9079.56705
897.2620 9006.43409
897.4397 8930.00390
897.6175 8951.40517
897.7952 8996.93152
897.9729 9045.32502
898.1506 9010.22283
898.3282 8930.31109
898.5059 8881.95855
898.6835 8871.71871
898.8611 8943.68433
899.0388 8768.68540
899.2163 8657.13254
899.3939 8624.63128
899.5715 8794.48980
899.7490 8803.80806
899.9266 8743.82306
900.1041 8760.45256
900.2816 8757.31917
900.4591 8710.35925
900.6365 8740.46439
900.8140 8598.29440
900.9914 8565.87505
901.1689 8540.99223
901.3463 8605.99476
901.5237 8650.16945
901.7011 8547.11566
901.8784 8515.29022
902.0558 8442.07534
902.2331 8498.12825
902.4104 8561.00089
902.5878 8529.56457
902.7650 8430.79103
902.9423 8389.64734
903.1196 8480.84339
903.2968 8547.87341
903.4741 8540.17305
903.6513 8491.61571
903.8285 8435.78808
904.0057 8486.43435
904.1828 8342.05255
904.3600 8237.97478
904.5371 8244.44636
904.7143 8283.76736
904.8914 8325.25920
905.0685 8382.00842
905.2456 8324.23522
905.4226 8314.32305
905.5997 8427.57572
905.7767 8510.47750
905.9537 8369.37245
906.1307 8311.72213
906.3077 8275.90316
906.4847 8268.32567
906.6617 8205.06392
906.8386 8305.10719
907.0156 8201.29566
907.1925 8159.00510
907.3694 8121.07672
907.5463 8110.85736
907.7231 8091.68837
907.9000 8166.19347
908.0768 8182.51578
908.2537 8060.84596
908.4305 8001.65966
908.6073 8095.78431
908.7841 8120.56473
908.9608 8064.26607
909.1376 8024.22828
909.3143 8043.37679
909.4910 8001.47535
909.6677 8025.74378
909.8444 8041.82033
910.0211 7982.49068
910.1978 7989.35137
910.3744 8068.09577
910.5510 8056.05371
910.7277 8092.38468
910.9043 8012.47294
911.0808 7981.42573
911.2574 7987.03717
911.4340 7950.89052
911.6105 7824.08029
911.7870 7852.73137
911.9636 7846.95610
912.1401 7790.53456
912.3165 7846.15740
912.4930 7777.67332
912.6695 7703.39349
912.8459 7668.02507
913.0223 7663.56050
913.1987 7624.95629
913.3751 7591.53344
913.5515 7605.68490
913.7279 7648.69225
913.9042 7606.79081
914.0805 7553.27738
914.2568 7519.54734
914.4331 7508.07871
914.6094 7479.53003
914.7857 7527.00195
914.9620 7530.58589
915.1382 7450.91991
915.3144 7458.57931
915.4906 7566.07719
915.6668 7526.59235
915.8430 7448.72858
916.0192 7304.57206
916.1953 7367.48566
916.3715 7407.85112
916.5476 7328.57425
916.7237 7431.68948
916.8998 7403.83710
917.0759 7308.56560
917.2519 7272.31655
917.4280 7363.65596
917.6040 7326.58772
917.7800 7362.46814
917.9560 7331.78956
918.1320 7358.76131
918.3080 7380.12163
918.4839 7300.59900
918.6599 7304.77686
918.8358 7281.26618
919.0117 7229.61640
919.1876 7196.91034
919.3635 7206.24908
919.5394 7299.90269
919.7152 7272.62375
919.8911 7216.28413
920.0669 7157.24119
920.2427 7042.32966
920.4185 6990.51605
920.5942 7007.41179
920.7700 6975.99595
920.9458 7080.89291
921.1215 7070.16156
921.2972 7052.79478
921.4729 7032.00790
921.6486 6929.75282
921.8243 6802.51252
921.9999 6846.03186
922.1756 6857.91007
922.3512 6867.55601
922.5268 6807.59148
922.7024 6900.20063
922.8780 6927.23382
923.0535 6919.00098
923.2291 6864.36118
923.4046 6886.21300
923.5801 6970.01588
923.7557 6941.26240
923.9311 6904.52184
924.1066 6823.07413
924.2821 6859.24125
924.4575 6879.61854
924.6330 6837.26655
924.8084 6754.36478
924.9838 6714.61370
925.1592 6725.42698
925.3345 6699.23346
925.5099 6620.93961
925.6852 6581.31142
925.8606 6631.75289
926.0359 6574.40976
926.2112 6579.87784
926.3864 6534.86348
926.5617 6453.55912
926.7370 6429.12686
926.9122 6392.32486
927.0874 6395.15106
927.2626 6404.28500
927.4378 6374.60993
927.6130 6373.29923
927.7882 6367.17580
927.9633 6275.95928
928.1384 6261.68493
928.3135 6243.27369
928.4886 6179.02891
928.6637 6223.61319
928.8388 6242.70026
929.0139 6231.66171
929.1889 6196.19089
929.3639 6171.04184
929.5389 6182.96101
929.7139 6171.36951
929.8889 6180.31913
930.0639 6195.45362
930.2388 6123.22177
930.4138 6083.71645
930.5887 6107.32953
930.7636 6133.76880
930.9385 6113.14576
931.1134 6064.58842
931.2882 6074.62347
931.4631 6017.83329
931.6379 5952.09350
931.8127 5885.08396
931.9875 5917.33947
932.1623 5924.67120
932.3371 5899.93173
932.5118 5845.47624
932.6866 5798.37296
932.8613 5833.37275
933.0360 5819.97903
933.2107 5803.16521
933.3854 5749.11931
933.5600 5770.66395
933.7347 5673.36495
933.9093 5666.58617
934.0839 5696.62987
934.2586 5732.89940
934.4331 5711.66197
934.6077 5688.86807
934.7823 5656.38729
934.9568 5736.83150
935.1314 5648.03158
935.3059 5641.58047
935.4804 5584.70838
935.6549 5605.80246
935.8293 5605.14711
936.0038 5589.41871
936.1782 5598.08162
936.3526 5603.67257
936.5271 5540.92281
936.7015 5485.75053
936.8758 5493.75809
937.0502 5448.94853
937.2246 5486.07821
937.3989 5567.75120
937.5732 5486.54924
937.7475 5461.80978
937.9218 5419.80594
938.0961 5391.07294
938.2703 5363.91687
938.4446 5328.24126
938.6188 5372.57978
938.7930 5386.69028
938.9672 5355.13109
939.1414 5370.49085
939.3156 5305.28353
939.4897 5282.34628
939.6639 5250.82804
939.8380 5227.15352
940.0121 5211.97807
940.1862 5233.13359
940.3603 5262.95201
940.5344 5281.44517
940.7084 5247.14169
940.8824 5207.90261
941.0565 5201.41055
941.2305 5142.12186
941.4045 5096.28832
941.5784 5042.69297
941.7524 5058.72857
941.9263 5114.00325
942.1003 5130.57131
942.2742 5111.68904
942.4481 5035.99612
942.6220 5063.72561
942.7958 5050.29094
942.9697 5076.66877
943.1435 5042.38578
943.3174 5057.47931
943.4912 4988.44228
943.6650 4956.80116
943.8387 4908.01855
944.0125 4893.41653
944.1863 4924.23846
944.3600 4933.12665
944.5337 4930.68956
944.7074 4978.44819
944.8811 4952.15227
945.0548 4921.35083
945.2284 4882.99237
945.4021 4880.20713
945.5757 4872.44533
945.7493 4834.66031
945.9229 4724.33623
946.0965 4647.45548
946.2701 4670.47465
946.4436 4698.26559
946.6172 4677.74494
946.7907 4663.06101
946.9642 4682.22999
947.1377 4692.57224
947.3112 4643.64626
947.4847 4670.82281
947.6581 4685.03571
947.8315 4688.06670
948.0050 4599.92213
948.1784 4565.80297
948.3518 4613.13153
948.5251 4590.93155
948.6985 4649.17578
948.8718 4610.63301
949.0452 4536.94709
949.2185 4538.11443
949.3918 4525.02791
949.5651 4516.36500
949.7383 4498.05616
949.9116 4490.25340
950.0848 4524.90503
950.2581 4532.40060
950.4313 4539.93712
950.6045 4567.93286
950.7776 4606.51659
950.9508 4500.41133
951.1239 4485.82979
951.2971 4399.93798
951.4702 4417.96011
951.6433 4416.66989
951.8164 4386.17563
951.9895 4378.14759
952.1625 4314.37385
952.3356 4355.47658
952.5086 4320.88639
952.6816 4342.84061
952.8546 4315.54119
953.0276 4278.82111
953.2006 4298.99360
953.3735 4297.72386
953.5465 4316.23750
953.7194 4306.40725
953.8923 4281.42203
954.0652 4283.55192
954.2381 4273.49639
954.4109 4233.54052
954.5838 4223.38260
954.7566 4234.17539
954.9294 4198.62265
955.1022 4186.27340
955.2750 4197.16860
955.4478 4164.93357
955.6206 4196.45181
955.7933 4197.70107
955.9660 4194.01472
956.1388 4191.06565
956.3115 4169.43910
956.4841 4131.75647
956.6568 4079.16464
956.8295 4090.89950
957.0021 4077.71058
957.1747 4092.27164
957.3473 4080.63917
957.5199 4071.23900
957.6925 4060.50764
957.8651 4069.94878
958.0376 4052.13145
958.2102 4027.28959
958.3827 4051.49658
958.5552 4102.88011
958.7277 4070.19453
958.9001 4035.82962
959.0726 3962.04130
959.2450 3914.61035
959.4175 3911.33360
959.5899 3884.73048
959.7623 3877.91075
959.9347 3856.12036
960.1070 3851.90154
960.2794 3891.46830
960.4517 3870.59950
960.6241 3877.74691
960.7964 3857.10338
960.9687 3892.16461
961.1409 3895.13416
961.3132 3875.22791
961.4855 3858.68032
961.6577 3844.20118
961.8299 3830.52075
962.0021 3805.59697
962.1743 3763.47025
962.3465 3719.11125
962.5186 3726.79113
962.6908 3721.03634
962.8629 3696.56311
963.0350 3666.60133
963.2071 3679.25778
963.3792 3692.01662
963.5513 3705.92233
963.7233 3758.26841
963.8954 3733.28319
964.0674 3733.50847
964.2394 3702.82990
964.4114 3679.38066
964.5834 3671.72125
964.7553 3645.34342
964.9273 3642.98825
965.0992 3641.61611
965.2711 3667.05188
965.4430 3629.30782
965.6149 3600.65674
965.7868 3589.16763
965.9587 3604.24068
966.1305 3643.50024
966.3023 3628.18144
966.4741 3620.44012
966.6459 3614.13237
966.8177 3626.39970
966.9895 3602.35655
967.1613 3610.77370
967.3330 3602.21319
967.5047 3566.84477
967.6764 3549.53944
967.8481 3539.32007
968.0198 3530.49333
968.1915 3505.93818
968.3631 3489.90259
968.5347 3488.67381
968.7064 3483.20573
968.8780 3499.99907
969.0496 3489.45203
969.2211 3453.26443
969.3927 3467.88692
969.5642 3418.05984
969.7358 3412.85800
969.9073 3387.42223
970.0788 3443.47514
970.2503 3442.22588
970.4217 3455.94727
970.5932 3445.05207
970.7646 3417.69121
970.9360 3430.38862
971.1074 3450.11055
971.2788 3480.07234
971.4502 3439.93215
971.6216 3391.25193
971.7929 3361.41303
971.9643 3361.74070
972.1356 3402.72056
972.3069 3372.57446
972.4782 3345.54127
972.6494 3337.90235
972.8207 3322.29682
972.9919 3319.77782
973.1632 3298.11031
973.3344 3301.07987
973.5056 3262.59854
973.6768 3243.26571
973.8479 3277.18007
974.0191 3305.25773
974.1902 3311.09444
974.3614 3286.55977
974.5325 3291.74113
974.7036 3251.76478
974.8746 3256.29079
975.0457 3269.58211
975.2167 3234.80760
975.3878 3214.49175
975.5588 3193.09048
975.7298 3208.73696
975.9008 3181.72425
976.0718 3170.37850
976.2427 3174.16725
976.4137 3154.36339
976.5846 3163.08773
976.7555 3160.36394
976.9264 3158.07021
977.0973 3148.21948
977.2682 3171.13625
977.4390 3165.79105
977.6098 3187.29472
977.7807 3166.56928
977.9515 3156.02224
978.1223 3171.32057
978.2930 3157.82445
978.4638 3124.56544
978.6346 3088.41879
978.8053 3059.84963
978.9760 3053.29613
979.1467 3025.60759
979.3174 3040.55776
979.4881 3018.27586
979.6587 3024.66553
979.8294 3024.05114
980.0000 3014.03657
980.1706 3014.13897
980.3412 3016.94468
980.5118 3045.80056
980.6824 3045.14521
980.8529 3051.39152
981.0235 3036.25703
981.1940 3023.55962
981.3645 3000.76573
981.5350 3013.46314
981.7055 3000.76573
981.8759 2984.38198
982.0464 2987.90449
982.2168 2971.17258
982.3872 2998.55393
982.5576 2976.62018
982.7280 2975.65763
982.8984 2990.50541
983.0687 2974.55173
983.2391 2970.72203
983.4094 2963.75894
983.5797 2934.24771
983.7500 2933.53092
983.9203 2914.05473
984.0906 2926.24015
984.2608 2875.40956
984.4311 2896.44220
984.6013 2880.20181
984.7715 2923.63923
984.9417 2915.91839
985.1119 2918.99034
985.2820 2869.67525
985.4522 2854.97084
985.6223 2855.85146
985.7924 2874.85661
985.9625 2892.61250
986.1326 2899.84183
986.3027 2881.43059
986.4727 2896.17597
986.6428 2881.98354
986.8128 2867.60680
986.9828 2842.25295
987.1528 2832.95517
987.3228 2825.88968
987.4928 2846.47177
987.6627 2837.72694
987.8327 2819.76625
988.0026 2822.89965
988.1725 2845.57066
988.3424 2818.18932
988.5123 2824.78378
988.6821 2802.29708
988.8520 2798.30354
989.0218 2766.47811
989.1916 2781.79691
989.3614 2752.49048
989.5312 2756.15634
989.7010 2743.06982
989.8707 2747.94399
990.0405 2744.25765
990.2102 2756.66834
990.3799 2757.89712
990.5496 2735.57426
990.7193 2724.84290
990.8890 2718.59660
991.0586 2696.66285
991.2283 2715.54512
991.3979 2705.26432
991.5675 2723.61412
991.7371 2699.75528
991.9067 2688.67577
992.0762 2674.81102
992.2458 2684.82559
992.4153 2709.99513
992.5848 2704.07650
992.7543 2696.47853
992.9238 2667.15162
993.0933 2674.09424
993.2627 2674.17615
993.4322 2653.24591
993.6016 2654.14702
993.7710 2637.53799
993.9404 2647.59352
994.1098 2644.07101
994.2792 2657.01418
994.4485 2650.97267
994.6179 2656.13355
994.7872 2654.98669
994.9565 2655.15053
995.1258 2655.49868
995.2951 2652.34481
995.4643 2657.30089
995.6336 2677.65770
995.8028 2649.41621
995.9720 2624.20572
996.1412 2630.82066
996.3104 2619.74115
996.4796 2636.06346
996.6487 2643.88670
996.8179 2621.48192
996.9870 2620.78561
997.1561 2586.09302
997.3252 2593.91626
997.4943 2573.39561
997.6634 2568.39857
997.8324 2567.12883
998.0014 2572.65834
998.1705 2553.65319
998.3395 2549.37294
998.5085 2526.23089
998.6774 2530.34731
998.8464 2523.40470
999.0153 2519.12444
999.1843 2520.94713
999.3532 2527.74639
999.5221 2504.05139
999.6910 2516.58496
999.8599 2534.58660
1000.0287 2553.12072
1000.1976 2543.00376
1000.3664 2530.14251
1000.5352 2536.88033
1000.7040 2543.45431
1000.8728 2535.75395
1001.0415 2490.67815
1001.2103 2482.95731
1001.3790 2483.65362
1001.5478 2477.85787
1001.7165 2471.44773
1001.8851 2473.00418
1002.0538 2471.59109
1002.2225 2480.62263
1002.3911 2483.20307
1002.5598 2470.30087
1002.7284 2451.68483
1002.8970 2429.17765
1003.0656 2440.83060
1003.2341 2414.45276
1003.4027 2416.72600
1003.5712 2393.46108
1003.7398 2399.21587
1003.9083 2403.51660
1004.0768 2387.15333
1004.2453 2376.21718
1004.4137 2412.05663
1004.5822 2399.44115
1004.7506 2397.72085
1004.9190 2371.44541
1005.0874 2382.68876
1005.2558 2373.20667
1005.4242 2375.74615
1005.5926 2369.21313
1005.7609 2368.94689
1005.9292 2343.36776
1006.0976 2372.67420
1006.2659 2383.01644
1006.4342 2393.05148
1006.6024 2373.82106
1006.7707 2383.28267
1006.9389 2356.94580
1007.1071 2351.08860
1007.2754 2359.81295
1007.4436 2351.60060
1007.6117 2349.47071
1007.7799 2350.10558
1007.9481 2346.70595
1008.1162 2338.92367
1008.2843 2330.81371
1008.4524 2340.50061
1008.6205 2331.96058
1008.7886 2341.83179
1008.9566 2328.25375
1009.1247 2322.80616
1009.2927 2309.49436
1009.4607 2306.36097
1009.6287 2299.52075
1009.7967 2301.87592
1009.9647 2285.84032
1010.1327 2274.74033
1010.3006 2260.15879
1010.4685 2248.77209
1010.6364 2250.90197
1010.8043 2263.64034
1010.9722 2240.02726
1011.1401 2237.50826
1011.3079 2237.24202
1011.4758 2249.42744
1011.6436 2237.93833
1011.8114 2240.62117
1011.9792 2240.41637
1012.1470 2255.12079
1012.3147 2243.83648
1012.4825 2250.24662
1012.6502 2246.66268
1012.8179 2256.67725
1012.9856 2226.89978
1013.1533 2231.73299
1013.3210 2202.30368
1013.4886 2211.84721
1013.6563 2200.25571
1013.8239 2200.19427
1013.9915 2217.31529
1014.1591 2210.10644
1014.3267 2218.05255
1014.4942 2219.97765
1014.6618 2208.11991
1014.8293 2220.61252
1014.9969 2198.04390
1015.1644 2224.52414
1015.3319 2220.79683
1015.4993 2197.42951
1015.6668 2176.88838
1015.8342 2179.93986
1016.0017 2177.58469
1016.1691 2184.46587
1016.3365 2175.84392
1016.5039 2179.83746
1016.6712 2166.83286
1016.8386 2177.37990
1017.0059 2168.26643
1017.1733 2185.57177
1017.3406 2156.85925
1017.5079 2164.98968
1017.6752 2146.94708
1017.8424 2141.88860
1018.0097 2133.12329
1018.1769 2144.05944
1018.3441 2132.87753
1018.5113 2140.90557
1018.6785 2128.80208
1018.8457 2128.12625
1019.0129 2131.17772
1019.1800 2132.28362
1019.3471 2133.28713
1019.5142 2134.70023
1019.6813 2124.39894
1019.8484 2122.12570
1020.0155 2118.74655
1020.1826 2108.75246
1020.3496 2108.30191
1020.5166 2098.53310
1020.6836 2087.45359
1020.8506 2089.97259
1021.0176 2080.79769
1021.1846 2092.14344
1021.3515 2083.68532
1021.5185 2089.95211
1021.6854 2073.62980
1021.8523 2087.74030
1022.0192 2085.42610
1022.1861 2085.22130
1022.3529 2064.14770
1022.5198 2083.58293
1022.6866 2074.20323
1022.8534 2084.62739
1023.0202 2071.37703
1023.1870 2055.66911
1023.3538 2044.34385
1023.5205 2062.85748
1023.6873 2041.04662
1023.8540 2055.91487
1024.0207 2041.51765
1024.1874 2044.73296
1024.3541 2034.65695
1024.5207 2042.97171
1024.6874 2020.54645
1024.8540 2035.57854
1025.0206 2019.35863
1025.1872 2030.60197
1025.3538 2013.33760
1025.5204 2010.44996
1025.6870 2014.03391
1025.8535 2009.91749
1026.0201 2002.72912
1026.1866 2006.04683
1026.3531 1996.93337
1026.5196 2002.56528
1026.6860 2011.94498
1026.8525 2011.71970
1027.0189 1982.90478
1027.1853 1991.93633
1027.3518 1992.53024
1027.5181 1998.05975
1027.6845 1996.17562
1027.8509 1984.03117
1028.0172 1963.53100
1028.1836 1967.44262
1028.3499 1971.70239
1028.5162 1967.54502
1028.6825 1948.51939
1028.8488 1962.52749
1029.0150 1953.86459
1029.1813 1954.49946
1029.3475 1934.71608
1029.5137 1939.93840
1029.6799 1945.50887
1029.8461 1942.31404
1030.0123 1934.32696
1030.1784 1938.23858
1030.3446 1941.61773
1030.5107 1950.26016
1030.6768 1929.49376
1030.8429 1925.88933
1031.0090 1928.46977
1031.1750 1936.06774
1031.3411 1929.30944
1031.5071 1924.53767
1031.6732 1918.80336
1031.8392 1915.28085
1032.0051 1905.57348
1032.1711 1918.92624
1032.3371 1902.64489
1032.5030 1901.57994
1032.6690 1902.76777
1032.8349 1911.38971
1033.0008 1889.68125
1033.1667 1904.75430
1033.3325 1889.27165
1033.4984 1889.27165
1033.6642 1883.00487
1033.8300 1905.28677
1033.9959 1884.19269
1034.1616 1901.29323
1034.3274 1886.42498
1034.4932 1888.59582
1034.6589 1885.23715
1034.8247 1882.20616
1034.9904 1868.54621
1035.1561 1881.48937
1035.3218 1863.89732
1035.4875 1861.13256
1035.6531 1855.62352
1035.8188 1871.84344
1035.9844 1847.71837
1036.1500 1856.81135
1036.3156 1843.29475
1036.4812 1852.40821
1036.6468 1857.13902
1036.8123 1845.38368
1036.9779 1834.14033
1037.1434 1853.67795
1037.3089 1845.01505
1037.4744 1846.38719
1037.6399 1843.60195
1037.8053 1841.65638
1037.9708 1838.62538
1038.1362 1842.98756
1038.3016 1829.22521
1038.4670 1842.72132
1038.6324 1825.68222
1038.7978 1805.12062
1038.9632 1819.29256
1039.1285 1832.35860
1039.2938 1813.86544
1039.4592 1815.09422
1039.6245 1804.50623
1039.7897 1817.77706
1039.9550 1818.84201
1040.1203 1815.36046
1040.2855 1798.99719
1040.4507 1808.41785
1040.6159 1812.06323
1040.7811 1809.25751
1040.9463 1801.80291
1041.1115 1799.89830
1041.2766 1794.98317
1041.4418 1782.30624
1041.6069 1777.00200
1041.7720 1781.28226
1041.9371 1772.10736
1042.1021 1777.84167
1042.2672 1768.62581
1042.4323 1779.70532
1042.5973 1767.62231
1042.7623 1767.19223
1042.9273 1759.57379
1043.0923 1765.30810
1043.2572 1752.32398
1043.4222 1752.83597
1043.5871 1737.25093
1043.7521 1762.58430
1043.9170 1766.70072
1044.0819 1736.47270
1044.2467 1740.69152
1044.4116 1736.55462
1044.5765 1734.54761
1044.7413 1738.60259
1044.9061 1728.93618
1045.0709 1739.15554
1045.2357 1730.06256
1045.4005 1722.07548
1045.5652 1716.93508
1045.7300 1721.13342
1045.8947 1706.77716
1046.0594 1703.76664
1046.2241 1700.40797
1046.3888 1715.29671
1046.5535 1708.92752
1046.7181 1708.41553
1046.8828 1699.30207
1047.0474 1691.78603
1047.2120 1692.35946
1047.3766 1697.84801
1047.5412 1688.30448
1047.7057 1686.15411
1047.8703 1689.32846
1048.0348 1694.28455
1048.1993 1684.24950
1048.3639 1692.89193
1048.5283 1665.18291
1048.6928 1680.33788
1048.8573 1663.36022
1049.0217 1664.46612
1049.1861 1648.96300
1049.3506 1677.88032
1049.5150 1664.34324
1049.6793 1675.19748
1049.8437 1659.73531
1050.0081 1659.16188
1050.1724 1651.93255
1050.3367 1659.46908
1050.5010 1644.82610
1050.6653 1641.97942
1050.8296 1647.93901
1050.9939 1647.81614
1051.1581 1631.71910
1051.3224 1649.43403
1051.4866 1631.67814
1051.6508 1637.22814
1051.8150 1629.20010
1051.9791 1637.28958
1052.1433 1618.79642
1052.3074 1627.33645
1052.4716 1618.40730
1052.6357 1620.72151
1052.7998 1618.01819
1052.9639 1621.11062
1053.1279 1599.64791
1053.2920 1611.85380
1053.4560 1605.85326
1053.6201 1615.70399
1053.7841 1605.58702
1053.9481 1609.49864
1054.1120 1607.98314
1054.2760 1597.80474
1054.4399 1603.58001
1054.6039 1599.23832
1054.7678 1583.14128
1054.9317 1595.03998
1055.0956 1590.75973
1055.2595 1601.38868
1055.4233 1574.64221
1055.5872 1575.83003
1055.7510 1576.97690
1055.9148 1576.62874
1056.0786 1571.03779
1056.2424 1576.87450
1056.4062 1565.05772
1056.5699 1572.63520
1056.7336 1562.00625
1056.8974 1553.09758
1057.0611 1548.51013
1057.2248 1551.39777
1057.3885 1543.82028
1057.5521 1549.43172
1057.7158 1551.25441
1057.8794 1553.07710
1058.0430 1547.87526
1058.2066 1546.56456
1058.3702 1533.04797
1058.5338 1545.76585
1058.6973 1526.80166
1058.8609 1534.11291
1059.0244 1522.64429
1059.1879 1535.68985
1059.3514 1521.92750
1059.5149 1529.23875
1059.6784 1525.18377
1059.8418 1519.67473
1060.0053 1514.90296
1060.1687 1517.21717
1060.3321 1506.95685
1060.4955 1512.79356
1060.6589 1517.13525
1060.8222 1517.17621
1060.9856 1502.45131
1061.1489 1508.41090
1061.3122 1498.43730
1061.4755 1514.12474
1061.6388 1506.44485
1061.8021 1508.88194
1061.9654 1492.90778
1062.1286 1507.03876
1062.2918 1497.90482
1062.4550 1493.44025
1062.6182 1485.51461
1062.7814 1492.00667
1062.9446 1494.60759
1063.1077 1482.74985
1063.2709 1468.76223
1063.4340 1479.04303
1063.5971 1463.39655
1063.7602 1479.92366
1063.9233 1467.36961
1064.0863 1479.45262
1064.2494 1469.76573
1064.4124 1463.21223
1064.5754 1462.31113
1064.7384 1475.23381
1064.9014 1457.25264
1065.0644 1464.44101
1065.2274 1447.75007
1065.3903 1463.62183
1065.5532 1447.25856
1065.7162 1453.83254
1065.8790 1453.01335
1066.0419 1456.49490
1066.2048 1449.44988
1066.3677 1440.13162
1066.5305 1437.03919
1066.6933 1444.30948
1066.8561 1433.66004
1067.0189 1438.67757
1067.1817 1421.57703
1067.3445 1435.15506
1067.5072 1422.47813
1067.6699 1428.04861
1067.8327 1425.63201
1067.9954 1424.03459
1068.1580 1419.57002
1068.3207 1420.81928
1068.4834 1409.80121
1068.6460 1421.61799
1068.8086 1413.34419
1068.9713 1418.52555
1069.1339 1407.54844
1069.2964 1411.00951
1069.4590 1405.80767
1069.6216 1413.30323
1069.7841 1401.83461
1069.9466 1406.74973
1070.1091 1395.05583
1070.2716 1402.36708
1070.4341 1400.42151
1070.5966 1402.96099
1070.7590 1392.82355
1070.9214 1406.52446
1071.0839 1401.46597
1071.2463 1403.20675
1071.4086 1396.96044
1071.5710 1391.59477
1071.7334 1381.33444
1071.8957 1393.00786
1072.0580 1380.86341
1072.2204 1385.69662
1072.3827 1378.48777
1072.5449 1374.71950
1072.7072 1367.61305
1072.8695 1374.30991
1073.0317 1365.68796
1073.1939 1359.21638
1073.3561 1361.91970
1073.5183 1376.05068
1073.6805 1357.70088
1073.8427 1364.04959
1074.0048 1356.14443
1074.1669 1371.29940
1074.3291 1358.15144
1074.4912 1366.99866
1074.6532 1354.85421
1074.8153 1354.85421
1074.9774 1345.80218
1075.1394 1356.86122
1075.3014 1354.42413
1075.4635 1355.07948
1075.6255 1338.88005
1075.7874 1364.64350
1075.9494 1338.28614
1076.1114 1339.61732
1076.2733 1341.58337
1076.4352 1346.23226
1076.5971 1331.34352
1076.7590 1346.31418
1076.9209 1329.35700
1077.0828 1332.87950
1077.2446 1329.15220
1077.4064 1333.59629
1077.5683 1318.80996
1077.7301 1324.91290
1077.8918 1314.18155
1078.0536 1328.96788
1078.2154 1321.04224
1078.3771 1327.75958
1078.5388 1310.88432
1078.7006 1326.96087
1078.8623 1316.16808
1079.0239 1318.27748
1079.1856 1313.52620
1079.3473 1324.25755
1079.5089 1315.53321
1079.6705 1321.51327
1079.8321 1310.39280
1079.9937 1316.86439
1080.1553 1300.00960
1080.3169 1319.54723
1080.4784 1302.91772
1080.6399 1313.25996
1080.8014 1301.25886
1080.9629 1307.15701
1081.1244 1310.57712
1081.2859 1305.70296
1081.4474 1298.47363
1081.6088 1309.36882
1081.7702 1307.03414
1081.9316 1296.65093
1082.0930 1295.46311
1082.2544 1298.67842
1082.4158 1293.21035
1082.5771 1300.43968
1082.7385 1293.82474
1082.8998 1296.58950
1083.0611 1285.03895
1083.2224 1291.05998
1083.3837 1289.62640
1083.5449 1289.36017
1083.7062 1285.69430
1083.8674 1287.90611
1084.0286 1281.08637
1084.1898 1281.16829
1084.3510 1284.19928
1084.5122 1287.92659
1084.6734 1277.89154
1084.8345 1287.51699
1084.9956 1270.66221
1085.1567 1278.15778
1085.3178 1269.18767
1085.4789 1282.33563
1085.6400 1261.81499
1085.8010 1272.87402
1085.9621 1274.51239
1086.1231 1275.00390
1086.2841 1262.26554
1086.4451 1274.67623
1086.6061 1278.36257
1086.7670 1268.18417
1086.9280 1274.04136
1087.0889 1268.34801
1087.2498 1269.31055
1087.4107 1266.30004
1087.5716 1272.17771
1087.7325 1269.06480
1087.8933 1259.58270
1088.0542 1287.68083
1088.2150 1257.20706
1088.3758 1263.90391
1088.5366 1257.84193
1088.6974 1263.67864
1088.8582 1246.02515
1089.0189 1272.73066
1089.1796 1255.69156
1089.3404 1268.90096
1089.5011 1251.14507
1089.6618 1274.00040
1089.8224 1256.44931
1089.9831 1271.19468
1090.1438 1250.73548
1090.3044 1264.72310
1090.4650 1256.08067
1090.6256 1255.60964
1090.7862 1249.93677
1090.9468 1254.79045
1091.1073 1252.31241
1091.2679 1255.54820
1091.4284 1253.21352
1091.5889 1265.43989
1091.7494 1253.35688
1091.9099 1254.54470
1092.0703 1250.98123
1092.2308 1264.62070
1092.3912 1248.78990
1092.5516 1272.17771
1092.7121 1244.36629
1092.8724 1266.09524
1093.0328 1252.53769
1093.1932 1261.87642
1093.3535 1251.30891
1093.5139 1262.49082
1093.6742 1258.39488
1093.8345 1260.27901
1093.9948 1250.28492
1094.1550 1252.31241
1094.3153 1255.26149
1094.4755 1262.81849
1094.6358 1249.95725
1094.7960 1255.30245
1094.9562 1254.60614
1095.1163 1265.41941
1095.2765 1242.93271
1095.4367 1252.64009
1095.5968 1255.09765
1095.7569 1256.12163
1095.9170 1244.20245
1096.0771 1260.07421
1096.2372 1254.76997
1096.3973 1259.70558
1096.5573 1252.59913
1096.7173 1257.94432
1096.8773 1256.01923
1097.0374 1252.18953
1097.1973 1249.21998
1097.3573 1253.82791
1097.5173 1248.11408
1097.6772 1253.52071
1097.8371 1246.00467
1097.9970 1252.25097
1098.1569 1247.84784
1098.3168 1249.60909
1098.4767 1251.12459
1098.6365 1251.22699
1098.7964 1250.67404
1098.9562 1263.08473
1099.1160 1241.06906
1099.2758 1255.48676
1099.4356 1249.17902
1099.5953 1258.84543
1099.7551 1253.74599
1099.9148 1259.48030
1100.0745 1251.26795
1100.2342 1253.31592
1100.3939 1250.63308
1100.5536 1257.65761
1100.7132 1247.99120
1100.8729 1260.52477
1101.0325 1251.24747
1101.1921 1254.01222
1101.3517 1248.85134
1101.5113 1248.64655
1101.6709 1250.98123
1101.8304 1249.69101
1101.9899 1248.81038
1102.1495 1255.58916
1102.3090 1238.81630
1102.4685 1258.02624
1102.6279 1249.01518
1102.7874 1249.48621
1102.9468 1246.39378
1103.1063 1249.32238
1103.2657 1245.59507
1103.4251 1252.21001
1103.5845 1248.91278
1103.7438 1261.44635
1103.9032 1251.53418
1104.0625 1246.20946
1104.2219 1248.70799
1104.3812 1250.91979
1104.5405 1247.70448
1104.6997 1255.87588
1104.8590 1246.41426
1105.0183 1254.93381
1105.1775 1245.20596
1105.3367 1258.78399
1105.4959 1245.57459
1105.6551 1262.85945
1105.8143 1234.51556
1105.9735 1258.49728
1106.1326 1243.79286
1106.2917 1266.93491
1106.4508 1252.88584
1106.6099 1259.54174
1106.7690 1238.18143
1106.9281 1256.20355
1107.0872 1245.41076
1107.2462 1259.41886
1107.4052 1255.60964
1107.5642 1253.86887
1107.7232 1252.94728
1107.8822 1249.24046
1108.0412 1247.64304
1108.2001 1260.56572
1108.3591 1250.36684
1108.5180 1253.52071
1108.6769 1244.22293
1108.8358 1251.94378
1108.9947 1236.91169
1109.1535 1255.77348
1109.3124 1245.65651
1109.4712 1252.80392
1109.6300 1251.84138
1109.7888 1252.21001
1109.9476 1246.39378
1110.1064 1261.50779
1110.2651 1247.47920
1110.4239 1255.65060
1110.5826 1243.75190
1110.7413 1258.92735
1110.9000 1251.10411
1111.0587 1255.93732
1111.2173 1242.78936
1111.3760 1256.61315
1111.5346 1255.40484
1111.6932 1260.70908
1111.8518 1245.77939
1112.0104 1255.42532
1112.1690 1250.05965
1112.3276 1253.56167
1112.4861 1240.53659
1112.6446 1248.89230
1112.8032 1255.97827
1112.9617 1252.72200
1113.1201 1256.06019
1113.2786 1248.17551
1113.4371 1243.64950
1113.5955 1254.33990
1113.7539 1243.93622
1113.9123 1253.99175
1114.0707 1257.28897
1114.2291 1258.27200
1114.3875 1254.52422
1114.5458 1258.49728
1114.7042 1248.85134
1114.8625 1251.14507
1115.0208 1239.38973
1115.1791 1252.02570
1115.3374 1246.22994
1115.4956 1254.17606
1115.6539 1245.63603
1115.8121 1255.17957
1115.9703 1246.55762
1116.1285 1252.45577
1116.2867 1239.55357
1116.4449 1258.80447
1116.6030 1248.52367
1116.7612 1254.44230
1116.9193 1244.12054
1117.0774 1248.83086
1117.2355 1237.40320
1117.3936 1254.19654
1117.5516 1246.16850
1117.7097 1243.23991
1117.8677 1247.11057
1118.0257 1257.16610
1118.1837 1248.44175
1118.3417 1257.45281
1118.4997 1246.37330
1118.6577 1254.99525
1118.8156 1247.66352
1118.9735 1246.22994
1119.1315 1250.14156
1119.2894 1265.17365
1119.4472 1245.73843
1119.6051 1258.43584
1119.7630 1243.15799
1119.9208 1256.83842
1120.0786 1238.61150
1120.2364 1255.24101
1120.3942 1248.56463
1120.5520 1252.98824
1120.7098 1253.68455
1120.8675 1257.02274
1121.0253 1252.18953
1121.1830 1257.12514
1121.3407 1255.15909
1121.4984 1254.62662
1121.6560 1255.50724
