# Averages = 100
# wavelength [µm]	intensity
446.8250 14.33578
447.0374 36746.70328
447.2498 1228.45357
447.4621 1230.99306
447.6745 1235.29379
447.8868 1240.61851
448.0992 1242.68696
448.3115 1234.88420
448.5238 1251.88234
448.7360 1241.54010
448.9483 1247.99120
449.1606 1240.80283
449.3728 1262.53177
449.5850 1232.48807
449.7972 1245.04212
450.0094 1233.63494
450.2216 1258.35392
450.4337 1246.68050
450.6459 1683.61463
450.8580 2015.30365
451.0701 2036.11101
451.2822 2065.51984
451.4943 2056.81598
451.7064 2035.80382
451.9184 2025.83021
452.1305 2086.61392
452.3425 2198.57637
452.5545 2121.18363
452.7665 2116.61666
452.9785 2230.52468
453.1905 2268.33019
453.4024 2192.04335
453.6143 2296.96079
453.8263 2271.70934
454.0382 2382.58636
454.2501 2246.70364
454.4619 2229.74646
454.6738 2363.74505
454.8856 2429.25957
455.0975 2277.30029
455.3093 2284.26338
455.5211 2360.18159
455.7329 2327.16833
455.9446 2361.53325
456.1564 2364.27752
456.3681 2433.02783
456.5798 2495.32704
456.7916 2434.54333
457.0033 2428.03079
457.2149 2382.15629
457.4266 2407.14151
457.6382 2471.50917
457.8499 2436.71418
458.0615 2559.10079
458.2731 2470.32135
458.4847 2556.80707
458.6963 2579.39616
458.9078 2594.67401
459.1194 2748.55838
459.3309 2765.26980
459.5424 2625.65977
459.7539 2521.39769
459.9654 2573.47753
460.1769 2647.32728
460.3883 2633.83117
460.5998 2490.47336
460.8112 2464.36176
461.0226 2541.63162
461.2340 2650.72691
461.4454 2593.21995
461.6567 2546.83346
461.8681 2528.70893
462.0794 2490.26856
462.2907 2598.17603
462.5020 2688.26618
462.7133 2781.32588
462.9246 2844.69003
463.1359 2684.02688
463.3471 2455.41213
463.5583 2518.75581
463.7696 2847.49575
463.9808 2725.76449
464.1919 2599.05666
464.4031 2610.81200
464.6143 2748.31262
464.8254 2586.78933
465.0365 2569.87311
465.2476 2682.47043
465.4587 2731.72408
465.6698 2563.74968
465.8809 2534.56613
466.0919 2562.37754
466.3030 2728.65212
466.5140 2684.23168
466.7250 2582.57051
466.9360 2634.62988
467.1469 2588.40722
467.3579 2479.70104
467.5688 2480.86838
467.7798 2583.10298
467.9907 2756.11538
468.2016 2588.48914
468.4125 2568.68528
468.6233 2471.34533
468.8342 2486.50030
469.0450 2739.19916
469.2559 2736.08625
469.4667 2715.60656
469.6775 2504.11283
469.8882 2529.01613
470.0990 2587.87475
470.3098 2735.53330
470.5205 2606.26551
470.7312 2745.05635
470.9419 2844.73099
471.1526 2688.10234
471.3633 2552.95688
471.5739 2598.81090
471.7846 2578.04450
471.9952 2427.15016
472.2058 2492.17317
472.4164 2474.47872
472.6270 2513.90212
472.8376 2556.35651
473.0481 2699.38665
473.2587 2743.68421
473.4692 2689.94551
473.6797 2618.04133
473.8902 2539.68605
474.1007 2461.04405
474.3111 2461.26932
474.5216 2406.71144
474.7320 2519.84123
474.9424 2658.26344
475.1528 2716.44623
475.3632 2542.69656
475.5736 2541.65210
475.7840 2495.73664
475.9943 2520.14842
476.2046 2539.33789
476.4149 2569.48399
476.6252 2668.11417
476.8355 2801.78509
477.0458 2812.80316
477.2561 2846.55368
477.4663 2730.27002
477.6765 2671.49332
477.8867 2630.84114
478.0969 2636.00202
478.3071 2657.25993
478.5173 2613.08525
478.7274 2681.69220
478.9375 2834.32731
479.1477 2826.21735
479.3578 2822.98156
479.5679 2899.30936
479.7779 2765.74084
479.9880 2717.06062
480.1980 2794.49432
480.4081 2867.54536
480.6181 2797.19764
480.8281 2690.98998
481.0381 2812.08637
481.2480 2870.78115
481.4580 2787.75650
481.6679 2781.87883
481.8778 2732.17463
482.0877 2809.48545
482.2976 2841.12657
482.5075 2882.70033
482.7174 2847.47527
482.9272 2847.55719
483.1371 2798.79505
483.3469 2821.22031
483.5567 2903.01618
483.7665 2924.70417
483.9762 2920.19864
484.1860 2892.69442
484.3957 2921.28406
484.6055 2879.07543
484.8152 2925.91247
485.0249 2950.75433
485.2346 2929.76265
485.4442 2956.14049
485.6539 3015.98214
485.8635 3013.31978
486.0732 2943.93460
486.2828 2975.37092
486.4924 2979.95837
486.7019 2969.00174
486.9115 3005.63990
487.1210 3039.20610
487.3306 3058.35461
487.5401 3100.33797
487.7496 3092.86289
487.9591 3179.20525
488.1686 3161.03977
488.3780 3114.22320
488.5875 3137.97964
488.7969 3155.91984
489.0063 3148.79291
489.2157 3199.50062
489.4251 3187.68384
489.6345 3194.38070
489.8438 3203.06408
490.0531 3187.25377
490.2625 3213.59064
490.4718 3197.63697
490.6811 3258.60500
490.8903 3295.38652
491.0996 3309.12839
491.3089 3305.31916
491.5181 3336.69405
491.7273 3348.32651
491.9365 3337.45179
492.1457 3384.59603
492.3549 3378.92316
492.5640 3389.53164
492.7732 3414.92645
492.9823 3414.94693
493.1914 3505.83578
493.4005 3496.23081
493.6096 3478.47492
493.8187 3464.81497
494.0277 3532.88945
494.2368 3538.89000
494.4458 3567.72540
494.6548 3611.34713
494.8638 3640.24397
495.0728 3600.30858
495.2817 3634.73494
495.4907 3630.39324
495.6996 3691.99614
495.9085 3674.97752
496.1174 3717.86199
496.3263 3717.71863
496.5352 3751.26436
496.7440 3772.33796
496.9529 3802.95509
497.1617 3811.31080
497.3705 3800.53849
497.5793 3871.15245
497.7881 3851.32811
497.9969 3921.65536
498.2056 3938.69446
498.4144 3960.23909
498.6231 3981.33317
498.8318 4001.42374
499.0405 4036.25969
499.2492 3980.20679
499.4578 4067.10210
499.6665 4059.58605
499.8751 4123.44172
500.0837 4148.57030
500.2923 4158.91254
500.5009 4160.59187
500.7095 4233.39716
500.9180 4231.45159
501.1266 4291.78475
501.3351 4289.18383
501.5436 4340.58785
501.7521 4319.10465
501.9606 4392.60625
502.1691 4382.32545
502.3775 4410.52598
502.5860 4454.74162
502.7944 4466.08737
503.0028 4535.55447
503.2112 4566.23304
503.4196 4534.12089
503.6279 4639.81656
503.8363 4593.16383
504.0446 4705.47444
504.2529 4717.12738
504.4612 4758.53731
504.6695 4787.20887
504.8778 4789.72787
505.0860 4819.03431
505.2943 4839.98503
505.5025 4931.32443
505.7107 4917.62352
505.9189 4993.95132
506.1271 5033.94815
506.3353 5055.63614
506.5434 5016.88857
506.7516 5121.84697
506.9597 5106.99919
507.1678 5150.72332
507.3759 5214.25132
507.5840 5209.11091
507.7920 5250.62324
508.0001 5262.31714
508.2081 5388.08290
508.4161 5356.97426
508.6241 5422.09966
508.8321 5419.70354
509.0401 5486.99979
509.2480 5517.73980
509.4560 5516.79774
509.6639 5584.36023
509.8718 5637.48454
510.0797 5676.00683
510.2876 5649.28084
510.4955 5816.51797
510.7033 5826.00006
510.9112 5899.68598
511.1190 5897.37177
511.3268 5895.20092
511.5346 5969.33739
511.7424 6004.17334
511.9501 6087.91478
512.1579 6117.69225
512.3656 6159.75753
512.5733 6152.36436
512.7810 6264.96168
512.9887 6330.61956
513.1964 6373.23779
513.4040 6386.07855
513.6117 6452.82186
513.8193 6480.01888
514.0269 6521.49025
514.2345 6597.92044
514.4421 6628.76285
514.6497 6648.56671
514.8572 6746.02954
515.0647 6750.78083
515.2723 6841.85400
515.4798 6886.02869
515.6873 6967.12825
515.8947 6943.51517
516.1022 6989.43063
516.3097 7042.06342
516.5171 7164.01996
516.7245 7177.39320
516.9319 7224.14833
517.1393 7309.26191
517.3467 7341.00542
517.5540 7383.76701
517.7614 7453.50035
517.9687 7427.71642
518.1760 7500.29643
518.3833 7584.16075
518.5906 7589.56739
518.7978 7746.05268
519.0051 7721.29274
519.2123 7856.56108
519.4196 7773.51594
519.6268 7913.59701
519.8340 7977.20692
520.0411 8074.11680
520.2483 8158.82078
520.4554 8163.75639
520.6626 8246.63768
520.8697 8281.00260
521.0768 8424.74953
521.2839 8424.79049
521.4909 8491.18563
521.6980 8674.76555
521.9050 8701.47106
522.1121 8772.43318
522.3191 8848.94529
522.5261 8892.36223
522.7331 8984.58226
522.9400 9141.21091
523.1470 9150.40629
523.3539 9191.67286
523.5608 9233.41047
523.7677 9299.80561
523.9746 9380.63894
524.1815 9460.24349
524.3884 9538.86501
524.5952 9498.52002
524.8020 9691.19292
525.0089 9651.09369
525.2157 9771.94433
525.4225 9823.65554
525.6292 9876.47265
525.8360 9948.11060
526.0427 10061.28135
526.2494 10139.51376
526.4562 10250.96422
526.6629 10223.97199
526.8695 10293.95108
527.0762 10455.45390
527.2829 10455.86349
527.4895 10687.91883
527.6961 10746.90033
527.9027 10808.23700
528.1093 10826.89399
528.3159 10889.66423
528.5224 10945.47138
528.7290 11206.56692
528.9355 11148.93708
529.1420 11382.52839
529.3485 11284.32829
529.5550 11469.15747
529.7615 11464.69290
529.9680 11640.44958
530.1744 11685.03386
530.3808 11815.46899
530.5872 11779.50666
530.7936 11888.04900
531.0000 11976.88988
531.2064 12038.49278
531.4127 12103.27004
531.6191 12255.98707
531.8254 12265.71492
532.0317 12428.18028
532.2380 12396.00669
532.4443 12609.44599
532.6505 12436.41311
532.8568 12686.53154
533.0630 12868.10445
533.2692 12849.32457
533.4754 12955.20456
533.6816 13154.55383
533.8878 13134.25846
534.0939 13356.27876
534.3001 13316.79392
534.5062 13412.29070
534.7123 13496.78989
534.9184 13506.49726
535.1245 13534.71827
535.3306 13637.60822
535.5366 13809.28944
535.7426 13919.57256
535.9487 14127.89194
536.1547 13954.69522
536.3607 14131.29157
536.5666 14144.48049
536.7726 14267.58389
536.9785 14360.45927
537.1845 14563.74065
537.3904 14480.30640
537.5963 14663.04666
537.8022 14753.97647
538.0080 14901.75789
538.2139 14958.11799
538.4197 15078.60000
538.6256 15085.46069
538.8314 15217.32940
539.0372 15250.60889
539.2430 15470.47882
539.4487 15201.72388
539.6545 15610.76468
539.8602 15516.94723
540.0659 15630.40470
540.2716 15931.31274
540.4773 15895.32993
540.6830 16177.56051
540.8887 16180.75534
541.0943 16085.91390
541.2999 16142.47880
541.5056 16212.96989
541.7112 16316.06463
541.9167 16298.12443
542.1223 16536.03696
542.3279 16536.26223
542.5334 16606.65092
542.7389 16871.16656
542.9444 16963.24324
543.1499 17040.39022
543.3554 16965.84416
543.5609 17240.47677
543.7663 17351.16948
543.9718 17190.48585
544.1772 17429.34045
544.3826 17440.87051
544.5880 17724.24795
544.7934 17753.47246
544.9987 17778.19144
545.2041 18095.83140
545.4094 17920.50479
545.6147 18041.82646
545.8200 18228.99032
546.0253 18266.24287
546.2306 18421.43795
546.4358 18318.52752
546.6411 18549.12880
546.8463 18539.62622
547.0515 18796.54390
547.2567 18796.64630
547.4619 18930.52202
547.6670 19080.22853
547.8722 19078.32392
548.0773 19433.66698
548.2824 19289.30566
548.4876 19267.45384
548.6926 19523.06082
548.8977 19680.14002
549.1028 19878.09668
549.3078 19864.90776
549.5129 19921.98465
549.7179 19946.06876
549.9229 20073.69817
550.1279 20012.07480
550.3328 20149.51398
550.5378 19950.14422
550.7427 20207.10286
550.9476 20281.11645
551.1526 19996.26448
551.3575 20359.24646
551.5623 20377.06379
551.7672 20291.39725
551.9720 20456.75025
552.1769 20387.28315
552.3817 20674.06021
552.5865 20442.37351
552.7913 20595.19294
552.9961 20511.47197
553.2008 20669.34989
553.4056 20886.76225
553.6103 20820.20326
553.8150 21072.65637
554.0197 21105.42387
554.2244 21006.65034
554.4291 20911.19452
554.6337 21160.16608
554.8384 21160.20704
555.0430 21114.72165
555.2476 21026.29036
555.4522 20948.83618
555.6568 21113.75910
555.8613 21149.47568
556.0659 21353.67864
556.2704 21115.06980
556.4750 21334.34582
556.6795 21362.79210
556.8839 21210.46419
557.0884 21399.02067
557.2929 21418.31254
557.4973 21316.22130
557.7018 21298.83404
557.9062 21308.99197
558.1106 21326.19490
558.3150 21265.59551
558.5193 21445.98060
558.7237 21430.57987
558.9280 21276.69550
559.1323 21218.04167
559.3367 21220.39684
559.5410 21268.40123
559.7452 20934.23416
559.9495 21318.98605
560.1537 21266.96765
560.3580 21195.06346
560.5622 21374.05593
560.7664 21436.23226
560.9706 21312.80119
561.1748 21432.13633
561.3789 21476.67965
561.5831 21420.42195
561.7872 21386.95814
561.9913 21480.24311
562.1954 21331.78586
562.3995 21468.73353
562.6036 21410.36642
562.8076 21179.58082
563.0117 21458.69848
563.2157 21372.17180
563.4197 21507.01006
563.6237 21408.09317
563.8277 21203.62397
564.0316 21081.05304
564.2356 21217.46824
564.4395 21259.45160
564.6434 21203.66493
564.8473 21373.54394
565.0512 21241.36804
565.2551 21268.15547
565.4590 21331.66298
565.6628 21338.99471
565.8666 21385.60648
566.0705 21292.66965
566.2743 21166.53526
566.4780 21138.41665
566.6818 21143.29081
566.8856 21271.00215
567.0893 21081.76983
567.2930 21053.34403
567.4967 20950.90463
567.7004 21049.45289
567.9041 21136.30724
568.1078 21025.86029
568.3114 21045.56175
568.5151 21063.37907
568.7187 20553.00478
568.9223 20890.51003
569.1259 20808.46840
569.3295 21044.37392
569.5330 20983.09870
569.7366 20825.07743
569.9401 20899.93069
570.1436 20861.94087
570.3471 21052.81155
570.5506 20987.91142
570.7541 20826.16285
570.9575 20864.43939
571.1609 20673.54822
571.3644 20826.22429
571.5678 20767.91862
571.7712 20856.57519
571.9746 20807.05530
572.1779 20591.19940
572.3813 20435.08274
572.5846 20707.11443
572.7879 20562.24112
572.9912 20791.10163
573.1945 20632.89604
573.3978 20465.10596
573.6010 20503.36202
573.8043 20639.08091
574.0075 20234.75044
574.2107 20295.55463
574.4139 20143.71823
574.6171 20202.92500
574.8203 19824.86997
575.0234 20011.64472
575.2266 19651.52990
575.4297 19737.29883
575.6328 19668.95811
575.8359 19675.59353
576.0390 19163.51942
576.2420 19243.36973
576.4451 18934.49508
576.6481 19075.70252
576.8512 19282.09681
577.0542 18781.42989
577.2571 18957.14561
577.4601 18839.16213
577.6631 18582.40829
577.8660 18510.97514
578.0689 18191.53298
578.2719 18245.53791
578.4748 18185.61435
578.6776 17934.30810
578.8805 17896.83027
579.0834 17667.88785
579.2862 17739.03428
579.4890 17771.76082
579.6918 17791.83091
579.8946 17401.91814
580.0974 17430.58971
580.3002 17240.21053
580.5029 17009.77309
580.7057 17132.15970
580.9084 16785.72531
581.1111 16968.48604
581.3138 16740.15800
581.5164 16562.94727
581.7191 16440.37634
581.9217 16315.53216
582.1244 16120.93417
582.3270 16013.53869
582.5296 16048.72279
582.7322 16037.41800
582.9347 15912.77863
583.1373 15647.19804
583.3398 15608.53239
583.5424 15488.80814
583.7449 15382.60048
583.9474 15256.05649
584.1498 15089.02416
584.3523 15164.49180
584.5548 14920.23057
584.7572 14845.29540
584.9596 14804.99137
585.1620 14898.13299
585.3644 14531.81282
585.5668 14395.56146
585.7691 14439.12175
585.9715 14287.49015
586.1738 14313.54031
586.3761 14107.04362
586.5784 14182.83894
586.7807 14056.84791
586.9830 13985.84483
587.1852 13802.55163
587.3875 13675.33181
587.5897 13723.43859
587.7919 13565.94980
587.9941 13379.40032
588.1963 13330.57675
588.3984 13184.84329
588.6006 13027.80505
588.8027 13125.51364
589.0048 12958.91138
589.2069 12881.39576
589.4090 12885.63506
589.6111 12876.41920
589.8131 12776.08921
590.0152 12782.90895
590.2172 12510.38574
590.4192 12633.05907
590.6212 12406.00078
590.8232 12227.45886
591.0252 12308.96802
591.2271 12220.70056
591.4291 12166.49083
591.6310 12031.36585
591.8329 11916.88440
592.0348 11883.93258
592.2367 11802.42343
592.4385 11805.06531
592.6404 11825.56547
592.8422 11739.89894
593.0440 11717.73992
593.2458 11706.06650
593.4476 11613.17063
593.6494 11590.58154
593.8512 11571.00296
594.0529 11477.12407
594.2546 11418.79792
594.4563 11319.36904
594.6580 11195.01637
594.8597 11146.27472
595.0614 11043.48717
595.2630 11098.08601
595.4647 10965.91011
595.6663 10837.97350
595.8679 10820.95488
596.0695 10826.11576
596.2711 10719.10940
596.4727 10666.76332
596.6742 10635.79803
596.8757 10625.37387
597.0773 10588.28515
597.2788 10395.67369
597.4802 10443.96480
597.6817 10443.73952
597.8832 10272.67269
598.0846 10219.54838
598.2860 10173.46908
598.4875 10031.50389
598.6889 10063.26788
598.8902 10008.44376
599.0916 9983.97053
599.2930 9850.15626
599.4943 9861.72728
599.6956 9812.78083
599.8969 9687.99809
600.0982 9609.08985
600.2995 9518.40580
600.5008 9577.03914
600.7020 9429.46252
600.9032 9432.59591
601.1045 9353.81055
601.3057 9263.74088
601.5068 9297.65525
601.7080 9261.52908
601.9092 9123.61886
602.1103 9182.68228
602.3115 9143.68896
602.5126 9072.91116
602.7137 8961.48118
602.9147 8923.42992
603.1158 8912.12513
603.3169 8869.91649
603.5179 8836.78036
603.7189 8708.67991
603.9199 8710.11349
604.1209 8611.23756
604.3219 8585.67891
604.5229 8578.92061
604.7238 8546.86990
604.9247 8495.79356
605.1257 8466.48713
605.3266 8441.60431
605.5275 8356.34737
605.7283 8326.32415
605.9292 8350.40826
606.1300 8162.99864
606.3309 8139.38556
606.5317 8187.18515
606.7325 8217.96612
606.9332 8199.47296
607.1340 8165.12853
607.3348 8054.59965
607.5355 7987.11908
607.7362 8050.01220
607.9369 7912.81878
608.1376 7960.47501
608.3383 7915.82929
608.5390 7923.07910
608.7396 7867.12860
608.9402 7896.82414
609.1409 7905.42561
609.3415 7803.02717
609.5421 7773.31115
609.7426 7767.22868
609.9432 7709.82412
610.1437 7629.44134
610.3443 7771.28366
610.5448 7680.04665
610.7453 7678.57211
610.9457 7641.87251
611.1462 7647.13579
611.3467 7593.66333
611.5471 7678.89979
611.7475 7599.99155
611.9479 7686.62063
612.1483 7543.01706
612.3487 7665.52655
612.5491 7569.25154
612.7494 7696.51232
612.9497 7571.21759
613.1501 7624.40334
613.3504 7593.92956
613.5506 7738.68000
613.7509 7674.94721
613.9512 7632.30850
614.1514 7618.46423
614.3516 7707.50991
614.5519 7654.67232
614.7521 7722.84920
614.9522 7715.16931
615.1524 7694.28003
615.3526 7739.23295
615.5527 7837.26921
615.7528 7773.00395
615.9529 7814.31148
616.1530 7879.17065
616.3531 7951.03387
616.5532 8004.62922
616.7532 7938.09071
616.9532 7960.16782
617.1533 7922.85382
617.3533 7989.20801
617.5532 8009.07331
617.7532 8061.03028
617.9532 8027.62791
618.1531 8185.73109
618.3530 8107.78540
618.5530 8173.75048
618.7528 8225.27737
618.9527 8306.15166
619.1526 8301.15461
619.3524 8291.61108
619.5523 8350.30586
619.7521 8396.40564
619.9519 8469.27237
620.1517 8522.72435
620.3515 8608.57520
620.5512 8649.65745
620.7510 8661.80191
620.9507 8701.77826
621.1504 8699.13638
621.3501 8776.52912
621.5498 8912.20705
621.7495 8924.59726
621.9492 8991.44296
622.1488 8943.86865
622.3484 9082.27037
622.5480 9110.69618
622.7476 9310.41409
622.9472 9231.11674
623.1468 9254.32023
623.3463 9567.31129
623.5459 9635.03762
623.7454 9605.54687
623.9449 9672.49497
624.1444 9754.74139
624.3439 9868.42414
624.5433 9875.96066
624.7428 9984.64636
624.9422 9987.39064
625.1416 10051.65590
625.3410 10106.09091
625.5404 10283.81364
625.7398 10330.75308
625.9391 10440.87236
626.1385 10390.20562
626.3378 10503.13061
626.5371 10751.56970
626.7364 10621.81040
626.9357 10752.88040
627.1350 10863.32736
627.3342 10962.75624
627.5335 10995.15510
627.7327 11113.42530
627.9319 11198.37504
628.1311 11531.88675
628.3303 11432.88795
628.5294 11502.98992
628.7286 11645.46710
628.9277 11829.04702
629.1268 11897.87925
629.3259 12051.14923
629.5250 12161.98530
629.7241 12225.82049
629.9231 12109.04531
630.1222 12462.31992
630.3212 12522.98075
630.5202 12489.80366
630.7192 12720.91693
630.9182 12749.69089
631.1171 12829.56167
631.3161 12936.26085
631.5150 12956.43334
631.7140 13118.03855
631.9129 13310.65001
632.1118 13440.10212
632.3106 13515.79504
632.5095 13662.83920
632.7083 13635.33498
632.9072 13806.38133
633.1060 13949.80058
633.3048 13865.50619
633.5036 14006.81603
633.7023 14215.36069
633.9011 14488.31396
634.0998 14666.95828
634.2986 14650.51309
634.4973 14892.89019
634.6960 14855.57620
634.8947 14973.45728
635.0933 15044.62419
635.2920 15184.97149
635.4906 15206.76188
635.6892 15476.74560
635.8878 15583.54717
636.0864 15755.82230
636.2850 15746.68836
636.4836 15880.50264
636.6821 15903.76756
636.8806 16135.90482
637.0792 16317.43677
637.2777 16416.96805
637.4761 16453.87245
637.6746 16607.96162
637.8731 16933.77297
638.0715 16844.48153
638.2699 17109.91876
638.4683 17127.63369
638.6667 17111.27042
638.8651 17301.36288
639.0635 17482.03468
639.2618 17589.51208
639.4602 17749.47892
639.6585 17702.06844
639.8568 18038.85690
640.0551 18130.76974
640.2534 18140.76383
640.4516 18405.54571
640.6499 18492.07239
640.8481 18798.55091
641.0463 18903.48883
641.2445 19186.66147
641.4427 19092.49587
641.6409 19219.96144
641.8390 19321.90933
642.0372 19488.08151
642.2353 19508.84791
642.4334 19597.52496
642.6315 19785.11890
642.8296 19800.99066
643.0277 19813.72902
643.2257 20318.67620
643.4237 20343.90717
643.6218 20306.38838
643.8198 20499.65520
644.0178 20739.59521
644.2157 20641.55895
644.4137 20772.50607
644.6116 21517.61854
644.8096 21590.81295
645.0075 21250.09238
645.2054 21616.53543
645.4033 21632.38671
645.6011 21648.42231
645.7990 21718.70859
645.9968 22013.94377
646.1947 22142.63812
646.3925 22321.30292
646.5903 22151.17815
646.7881 22557.26988
646.9858 22459.49985
647.1836 22475.41257
647.3813 22461.85501
647.5790 22649.22368
647.7767 23322.71868
647.9744 23008.80603
648.1721 23191.68964
648.3698 23588.11495
648.5674 23332.67181
648.7650 23621.94739
648.9627 23571.75168
649.1603 24330.38074
649.3578 24298.71915
649.5554 24437.67383
649.7530 24628.38068
649.9505 24289.99480
650.1480 24687.60793
650.3455 24779.11117
650.5430 24475.70460
650.7405 24711.54869
650.9380 24917.59482
651.1354 25182.11047
651.3329 25154.29905
651.5303 25588.42747
651.7277 25624.86083
651.9251 25658.75471
652.1225 25581.77157
652.3198 25696.00726
652.5172 25947.76406
652.7145 26261.59479
652.9118 26255.32801
653.1091 26456.41806
653.3064 26567.25413
653.5037 26546.89732
653.7009 26364.64858
653.8982 26781.22590
654.0954 27179.45343
654.2926 27324.53153
654.4898 27386.25731
654.6870 27422.15820
654.8841 27773.01621
655.0813 27595.27300
655.2784 28030.91692
655.4755 28075.39880
655.6726 28327.05320
655.8697 27978.69371
656.0668 28425.94961
656.2639 28342.47440
656.4609 28264.77447
656.6579 28633.87987
656.8550 28745.08458
657.0520 28772.81408
657.2490 28432.99462
657.4459 29113.14552
657.6429 29234.22143
657.8398 29154.16634
658.0367 29524.95108
658.2337 29421.79489
658.4305 29712.11494
658.6274 29806.83350
658.8243 29867.39193
659.0211 29964.21990
659.2180 30036.16504
659.4148 30202.93113
659.6116 30286.38586
659.8084 30471.23552
660.0052 30650.98574
660.2019 30728.00984
660.3987 30601.69113
660.5954 30900.73552
660.7921 30972.78307
660.9888 30821.41770
661.1855 31113.41708
661.3822 31202.07365
661.5788 31327.45029
661.7755 31364.49805
661.9721 31360.70931
662.1687 31676.91568
662.3653 31525.16120
662.5619 31741.20142
662.7584 31680.66346
662.9550 31893.73413
663.1515 32241.00819
663.3480 32099.00204
663.5445 32388.81010
663.7410 32040.22534
663.9375 32440.91042
664.1340 32510.09081
664.3304 32707.92459
664.5268 32599.38225
664.7233 33080.55250
664.9197 32978.87085
665.1160 33233.18761
665.3124 32984.99428
665.5088 33302.12224
665.7051 33244.28760
665.9014 33111.45635
666.0977 33181.25113
666.2940 33200.91163
666.4903 33451.54204
666.6866 33710.54865
666.8828 33440.89260
667.0791 33746.49050
667.2753 34176.83018
667.4715 34311.13597
667.6677 34628.14105
667.8639 34726.03395
668.0600 34216.31501
668.2562 34411.22020
668.4523 34395.53276
668.6484 34742.43818
668.8445 34319.77839
669.0406 35042.89568
669.2367 34948.15665
669.4327 35259.32502
669.6287 35181.21549
669.8248 35084.57184
670.0208 35149.67677
670.2168 35099.68585
670.4128 35384.39447
670.6087 35336.30816
670.8047 35500.06374
671.0006 35814.44743
671.1965 35202.90348
671.3924 35567.93343
671.5883 35401.88412
671.7842 35827.63635
671.9801 35223.95660
672.1759 35716.49308
672.3717 35565.74210
672.5675 36561.07539
672.7633 36077.57045
672.9591 36703.96217
673.1549 36806.11485
673.3506 36719.58818
673.5464 36426.31905
673.7421 36682.99097
673.9378 36794.07280
674.1335 36449.03102
674.3292 36849.69563
674.5249 36607.78956
674.7205 36075.60440
674.9161 36530.66306
675.1118 36337.43721
675.3074 36427.54783
675.5030 36530.37634
675.6985 36991.64034
675.8941 36984.55437
676.0896 37057.81021
676.2852 37033.74658
676.4807 36888.72991
676.6762 37071.87976
676.8717 37481.51447
677.0671 37564.37528
677.2626 37846.95401
677.4580 37630.74995
677.6534 37682.78884
677.8489 37416.36858
678.0442 37480.69528
678.2396 37246.44862
678.4350 37685.94271
678.6303 37440.90325
678.8257 37670.09143
679.0210 37923.46613
679.2163 37726.00098
679.4116 37842.05937
679.6069 37608.95956
679.8021 37132.13100
679.9974 37573.87786
680.1926 37673.57298
680.3878 37664.86911
680.5830 37790.86015
680.7782 37751.53915
680.9734 37630.60659
681.1685 37771.73212
681.3636 37626.57210
681.5588 38036.35016
681.7539 37825.90089
681.9490 37860.28629
682.1441 37812.01567
682.3391 37580.53376
682.5342 38206.33157
682.7292 38281.69682
682.9242 38541.56357
683.1192 38432.16108
683.3142 38636.85556
683.5092 38769.62537
683.7041 38995.14769
683.8991 38647.19780
684.0940 38548.62907
684.2889 38173.87126
684.4838 38544.20545
684.6787 38430.99374
684.8736 38014.21162
685.0684 38513.32208
685.2633 38467.93910
685.4581 38744.16912
685.6529 39114.70811
685.8477 39312.29613
686.0425 39146.28779
686.2372 38935.34700
686.4320 38715.31324
686.6267 38648.40610
686.8214 38912.24592
687.0161 38757.66524
687.2108 39105.86088
687.4055 39158.22744
687.6002 39135.72027
687.7948 39203.20084
687.9894 39349.69204
688.1841 39292.94283
688.3787 39338.05958
688.5732 39291.65261
688.7678 39224.02868
688.9624 38985.46080
689.1569 39266.42163
689.3514 38865.59319
689.5459 38605.86979
689.7404 39153.39424
689.9349 38902.78430
690.1294 39164.53519
690.3238 39171.60068
690.5182 39158.47320
690.7127 39216.69695
690.9071 39304.78009
691.1015 39149.89221
691.2958 39538.98579
691.4902 39361.54978
691.6845 40119.42110
691.8789 39625.02096
692.0732 39594.13759
692.2675 39347.13208
692.4618 39794.59277
692.6560 39666.57425
692.8503 40192.61550
693.0445 39972.95037
693.2387 39316.63783
693.4329 39887.67295
693.6271 39802.23170
693.8213 39854.29106
694.0155 40006.86473
694.2096 39852.91892
694.4038 39509.47456
694.5979 39608.14570
694.7920 39644.51762
694.9861 39468.51519
695.1801 39565.34315
695.3742 39342.29888
695.5682 39438.98348
695.7623 39633.62243
695.9563 39586.60107
696.1503 39841.83941
696.3443 39171.76452
696.5382 39908.76703
696.7322 39724.90040
696.9261 39986.40553
697.1201 39399.51912
697.3140 39650.23146
697.5079 39915.52533
697.7017 39404.49569
697.8956 39302.56828
698.0894 39429.74714
698.2833 39698.19488
698.4771 39911.92090
698.6709 40234.06639
698.8647 39897.85136
699.0585 40383.79338
699.2522 39680.43900
699.4460 39649.20747
699.6397 39867.41854
699.8334 39449.77627
700.0271 39884.37572
700.2208 40153.23306
700.4144 40338.22608
700.6081 40427.39464
700.8017 39952.38877
700.9954 40218.09223
701.1890 39852.87796
701.3826 39683.03992
701.5761 39677.20320
701.7697 39746.56791
701.9632 39427.12574
702.1568 39938.36018
702.3503 39839.15657
702.5438 39737.84356
702.7373 38983.92482
702.9308 39758.32325
703.1242 39809.56342
703.3177 39653.36485
703.5111 39790.98835
703.7045 39907.25153
703.8979 40257.72043
704.0913 40551.97258
704.2847 40547.32369
704.4780 40373.45114
704.6713 39780.09315
704.8647 39918.22865
705.0580 39762.60350
705.2513 39582.46417
705.4445 39762.70590
705.6378 39787.17913
705.8311 39107.70405
706.0243 39142.86768
706.2175 39657.07167
706.4107 39643.71892
706.6039 39981.98191
706.7971 39859.90250
706.9902 39865.08386
707.1834 39970.24705
707.3765 39557.04888
707.5696 39341.43873
707.7627 39600.71157
707.9558 39609.29256
708.1489 39213.74788
708.3419 38972.00565
708.5349 39193.59586
708.7280 39074.54744
708.9210 39774.80940
709.1140 39823.01858
709.3069 39420.34696
709.4999 39077.06644
709.6929 39634.17538
709.8858 39141.94609
710.0787 39434.41651
710.2716 38864.09817
710.4645 39374.73870
710.6574 39263.24728
710.8502 39573.61695
711.0431 38809.27405
711.2359 38911.48817
711.4287 38770.15785
711.6215 39082.65740
711.8143 38890.72177
712.0071 38878.63875
712.1998 39180.55030
712.3925 38968.56506
712.5853 39372.42450
712.7780 39244.13973
712.9707 39032.31832
713.1633 39072.70427
713.3560 39454.99860
713.5487 39165.06766
713.7413 39453.38070
713.9339 39416.88590
714.1265 39132.11584
714.3191 39128.67525
714.5117 38761.86357
714.7042 39317.47749
714.8968 39530.38432
715.0893 40115.44804
715.2818 39846.50878
715.4743 39783.96382
715.6668 39295.52327
715.8592 39373.61232
716.0517 39350.42931
716.2441 39539.02675
716.4366 39040.44876
716.6290 39325.95608
716.8214 39485.98436
717.0137 39536.30295
717.2061 39520.08304
717.3984 39432.02039
717.5908 39110.01826
717.7831 38959.57448
717.9754 39402.95971
718.1677 38476.33577
718.3600 38817.09729
718.5522 38716.52154
718.7445 38891.06992
718.9367 38604.72293
719.1289 38886.11384
719.3211 38562.71909
719.5133 38529.29624
719.7054 38527.18683
719.8976 38809.80652
720.0897 38696.75865
720.2818 38893.03597
720.4740 38961.88868
720.6660 38713.49055
720.8581 38755.39199
721.0502 38648.42658
721.2422 38679.55571
721.4343 38952.91858
721.6263 39089.84577
721.8183 39138.32119
722.0103 39094.92473
722.2022 38812.24360
722.3942 39164.94478
722.5861 38559.19658
722.7781 39093.51163
722.9700 39234.92387
723.1619 39027.97663
723.3538 38619.16111
723.5456 38436.89189
723.7375 38758.77114
723.9293 38730.91876
724.1211 38438.93986
724.3129 38173.07256
724.5047 38068.60567
724.6965 38504.80253
724.8883 38421.88028
725.0800 38684.53227
725.2718 38392.02090
725.4635 38486.59609
725.6552 38119.27242
725.8469 38549.14106
726.0385 38875.50536
726.2302 38530.38166
726.4218 37830.57026
726.6135 37954.90245
726.8051 37897.49788
726.9967 37952.34248
727.1882 38278.91158
727.3798 38768.39659
727.5714 38467.89814
727.7629 38621.02476
727.9544 38507.66969
728.1459 38121.50470
728.3374 38138.54380
728.5289 38628.90944
728.7204 38209.62880
728.9118 38649.59392
729.1032 38937.14922
729.2946 38994.16467
729.4860 37960.00189
729.6774 38153.18678
729.8688 38278.37911
730.0602 38083.45344
730.2515 38050.13299
730.4428 38220.85167
730.6341 37977.08195
730.8254 37820.80145
731.0167 38489.36085
731.2080 38128.34492
731.3992 38293.43168
731.5905 38371.37737
731.7817 38145.83457
731.9729 37761.41036
732.1641 38126.09215
732.3553 37759.69006
732.5464 38311.00325
732.7376 38301.91027
732.9287 38275.40955
733.1198 38240.77840
733.3109 38258.63669
733.5020 38146.61280
733.6931 38312.10915
733.8841 37997.90979
734.0752 38252.43135
734.2662 37967.76369
734.4572 37890.71910
734.6482 37496.87423
734.8392 37556.57252
735.0302 37466.54382
735.2211 37627.51416
735.4120 37519.97532
735.6030 37880.99125
735.7939 37752.39930
735.9848 37695.36337
736.1756 37590.46641
736.3665 37323.30888
736.5574 37120.17086
736.7482 37608.42709
736.9390 37444.71247
737.1298 37733.68086
737.3206 37617.56103
737.5114 37774.86551
737.7021 37539.57438
737.8929 37557.92418
738.0836 37439.34679
738.2743 37664.17280
738.4650 37427.55049
738.6557 37023.26098
738.8463 37090.14764
739.0370 37141.06014
739.2276 36846.99231
739.4182 36679.87806
739.6088 37116.79171
739.7994 36678.52640
739.9900 36902.18507
740.1806 37037.10525
740.3711 37225.51837
740.5617 37316.59155
740.7522 37096.94690
740.9427 36903.43433
741.1332 36950.00514
741.3236 36997.29274
741.5141 37137.55812
741.7045 37412.17025
741.8949 37381.00016
742.0854 36871.05594
742.2758 37420.38260
742.4661 36952.25790
742.6565 36730.03282
742.8469 36802.73571
743.0372 36775.04717
743.2275 36218.34782
743.4178 36473.44281
743.6081 36647.78639
743.7984 36440.28620
743.9886 36493.59482
744.1789 36447.43361
744.3691 36287.56917
744.5593 36381.03846
744.7495 36099.74995
744.9397 36145.76781
745.1299 36028.95167
745.3200 35716.00157
745.5102 36013.36663
745.7003 36122.72816
745.8904 36081.95310
746.0805 36403.03365
746.2706 36325.86618
746.4607 36625.19730
746.6507 36614.42498
746.8408 36159.40728
747.0308 36470.82141
747.2208 35967.65597
747.4108 36164.67056
747.6007 35833.37066
747.7907 36308.23317
747.9806 36282.89980
748.1706 36199.01500
748.3605 36305.98041
748.5504 36104.05069
748.7403 36278.27139
748.9302 35944.86208
749.1200 35935.17518
749.3098 36097.21047
749.4997 35847.58356
749.6895 35713.29825
749.8793 35715.77629
750.0691 36327.70935
750.2588 36158.79289
750.4486 35860.60864
750.6383 35816.06532
750.8280 35281.19732
751.0177 35240.68850
751.2074 35314.92737
751.3971 35268.78663
751.5868 35398.42305
751.7764 34991.38927
751.9660 34753.45626
752.1557 35008.65364
752.3453 35680.30547
752.5348 35553.47477
752.7244 35583.33415
752.9140 35556.38288
753.1035 35714.56799
753.2930 35475.69292
753.4825 35364.85685
753.6720 35134.66516
753.8615 35300.69399
754.0510 35133.00630
754.2404 35160.94060
754.4299 35401.47453
754.6193 35292.23587
754.8087 35079.67720
754.9981 35165.85572
755.1875 34825.89291
755.3768 34639.52775
755.5662 34910.55594
755.7555 34914.07845
755.9448 35398.01346
756.1341 35044.71837
756.3234 34565.69848
756.5127 34711.80057
756.7019 34879.81593
756.8912 35020.36802
757.0804 34948.79152
757.2696 34733.57048
757.4588 34488.75630
757.6480 34320.10607
757.8371 34256.57808
758.0263 34138.84035
758.2154 33807.25373
758.4045 33597.29598
758.5936 33550.29510
758.7827 34047.95150
758.9718 34325.69702
759.1609 34141.11360
759.3499 33901.91085
759.5389 33229.95182
759.7280 33403.94725
759.9170 33782.00228
760.1059 33988.82664
760.2949 33936.99255
760.4839 33821.22088
760.6728 33948.33830
760.8617 33837.03120
761.0506 33406.63009
761.2395 33370.31960
761.4284 33268.59699
761.6173 33211.92970
761.8061 33284.75547
761.9950 33295.38442
762.1838 33193.82565
762.3726 33368.49691
762.5614 32902.29730
762.7502 33501.20528
762.9389 33186.12529
763.1277 32957.05999
763.3164 33325.63292
763.5051 33301.28257
763.6938 33374.08786
763.8825 33224.19703
764.0712 33732.27760
764.2598 33381.05096
764.4484 33654.74150
764.6371 33675.54886
764.8257 33359.89544
765.0143 33665.14518
765.2029 33348.87737
765.3914 33699.53058
765.5800 33921.85807
765.7685 33427.04834
765.9570 33204.55701
766.1455 32940.08233
766.3340 32919.82792
766.5225 32989.33598
766.7110 32888.61687
766.8994 32767.76624
767.0878 32604.35881
767.2762 32765.75923
767.4646 32554.42933
767.6530 32610.25696
767.8414 32778.55903
768.0298 32579.29167
768.2181 32728.67051
768.4064 32690.92645
768.5947 32629.73314
768.7830 32339.29021
768.9713 32373.53225
769.1596 32045.26334
769.3478 32020.17572
769.5360 32126.19907
769.7243 31866.61903
769.9125 31545.64088
770.1007 31525.52983
770.2888 31459.48284
770.4770 31323.84587
770.6651 31400.46038
770.8533 31223.22916
771.0414 31138.58662
771.2295 31198.91978
771.4176 31523.80954
771.6056 31759.01875
771.7937 31353.43902
771.9817 31034.54980
772.1698 31427.61645
772.3578 31294.02744
772.5458 31155.87147
772.7337 30886.82982
772.9217 31053.55495
773.1096 31016.20000
773.2976 31267.05570
773.4855 31447.97325
773.6734 31133.34382
773.8613 31213.86995
774.0492 30899.93682
774.2370 30926.35561
774.4249 31426.51054
774.6127 31593.19472
774.8005 31421.00151
774.9883 31247.35424
775.1761 31322.14605
775.3639 30874.43961
775.5516 31068.66896
775.7394 30658.01027
775.9271 30562.86164
776.1148 30492.69823
776.3025 29779.14496
776.4902 30099.87735
776.6778 30004.33960
776.8655 30292.20209
777.0531 30744.72127
777.2407 30509.10246
777.4283 30055.96890
777.6159 30422.80106
777.8035 30280.50819
777.9911 29792.82539
778.1786 30275.77738
778.3661 30086.72939
778.5536 30128.01644
778.7411 30505.80523
778.9286 30670.29808
779.1161 30413.48280
779.3036 29817.11430
779.4910 29884.10336
779.6784 29870.62772
779.8658 30165.82194
780.0532 29886.70428
780.2406 29979.72302
780.4280 29406.25081
780.6153 29754.03686
780.8026 29864.40190
780.9900 29861.96482
781.1773 29517.12784
781.3646 29751.92745
781.5518 29475.69743
781.7391 29780.86525
781.9263 29337.88961
782.1136 29259.06330
782.3008 28999.33990
782.4880 29109.68445
782.6752 29092.70679
782.8623 29125.41285
783.0495 29281.95959
783.2366 28846.80719
783.4237 28957.86853
783.6108 29278.68284
783.7979 29034.93360
783.9850 29087.09536
784.1721 29379.81153
784.3591 28924.42520
784.5462 28930.48719
784.7332 29008.28952
784.9202 29064.11715
785.1072 28846.95054
785.2941 28881.90937
785.4811 28597.44651
785.6681 28701.33997
785.8550 28761.87792
786.0419 28674.92117
786.2288 28391.64613
786.4157 28129.87477
786.6025 28297.93108
786.7894 28360.55797
786.9762 28311.95967
787.1631 27995.30274
787.3499 28395.82399
787.5367 28381.95924
787.7234 27962.80148
787.9102 28015.92578
788.0970 28013.44774
788.2837 28233.91158
788.4704 27802.87560
788.6571 27633.87721
788.8438 27724.17216
789.0305 27601.41691
789.2171 27507.88618
789.4038 27318.32619
789.5904 27340.44425
789.7770 27405.79493
789.9636 27312.03893
790.1502 27652.92332
790.3368 27634.20489
790.5233 27488.16424
790.7099 27332.60053
790.8964 26958.96911
791.0829 26652.98210
791.2694 26636.04540
791.4559 26622.56977
791.6423 26570.75616
791.8288 26649.21384
792.0152 26921.49128
792.2016 26855.73101
792.3880 27000.35856
792.5744 26689.55882
792.7608 26312.81449
792.9471 26545.44326
793.1335 26889.62489
793.3198 26620.05076
793.5061 26677.70108
793.6924 26181.13010
793.8787 26221.80276
794.0650 26206.83211
794.2512 26339.13089
794.4375 26573.62331
794.6237 26692.09830
794.8099 26595.96665
794.9961 26082.41801
795.1823 26007.93338
795.3684 26177.70999
795.5546 25861.21690
795.7407 25998.57417
795.9268 25617.95917
796.1129 25739.64948
796.2990 26230.46567
796.4851 26581.58991
796.6712 26246.86990
796.8572 25878.91135
797.0432 25705.36648
797.2292 26004.00128
797.4152 25925.07257
797.6012 25362.16788
797.7872 25294.68731
797.9731 25466.83956
798.1591 25200.00971
798.3450 25171.62487
798.5309 25449.12463
798.7168 25574.50128
798.9027 25522.60575
799.0885 25387.33741
799.2744 25258.62258
799.4602 25595.39056
799.6460 25517.71110
799.8318 25829.80106
800.0176 25460.55230
800.2034 25490.80080
800.3892 24950.17800
800.5749 24849.90945
800.7606 24948.49867
800.9463 24969.42891
801.1320 24977.68223
801.3177 25039.26465
801.5034 25073.28141
801.6890 25189.36028
801.8747 24922.30515
802.0603 24512.91620
802.2459 24476.70811
802.4315 24490.32710
802.6171 24219.42180
802.8026 24588.44528
802.9882 24564.27925
803.1737 24211.68047
803.3592 24448.75334
803.5447 24662.19264
803.7302 24677.83912
803.9157 24565.67187
804.1012 24638.06757
804.2866 24159.43679
804.4720 24293.74258
804.6574 24128.57390
804.8428 23923.69511
805.0282 23864.75457
805.2136 23957.60947
805.3989 24223.29246
805.5843 23886.89311
805.7696 23827.99353
805.9549 23730.75597
806.1402 23679.35196
806.3255 23456.43056
806.5107 23582.83119
806.6960 23885.54145
806.8812 23514.67479
807.0664 23624.26160
807.2516 23217.39165
807.4368 23065.16613
807.6220 23173.17600
807.8072 23112.88380
807.9923 23206.04590
808.1774 23152.71679
808.3625 23496.05875
808.5476 23423.76546
808.7327 23465.89217
808.9178 23134.65371
809.1028 23171.39427
809.2879 23092.36315
809.4729 23041.61449
809.6579 22810.43977
809.8429 23061.47978
810.0279 22949.04630
810.2128 23002.98980
810.3978 22933.01070
810.5827 23026.02945
810.7676 23158.24631
810.9525 23251.30601
811.1374 23039.95563
811.3223 22863.50265
811.5072 22456.77605
811.6920 22482.62142
811.8768 22729.11494
812.0616 22382.06615
812.2464 22562.36932
812.4312 22448.74801
812.6160 22405.49491
812.8007 22585.36801
812.9855 22748.48872
813.1702 22444.83639
813.3549 22320.38133
813.5396 22206.32995
813.7243 22061.10849
813.9089 22296.80921
814.0936 22344.40401
814.2782 22325.05070
814.4628 22322.75698
814.6474 22356.30270
814.8320 22229.82015
815.0166 21963.48182
815.2012 22209.79102
815.3857 21945.39825
815.5702 21973.35303
815.7547 22024.28601
815.9392 21966.45137
816.1237 21736.34160
816.3082 21379.09394
816.4926 21595.74855
816.6771 21605.27160
816.8615 21348.51776
817.0459 21597.69412
817.2303 21555.50596
817.4147 21697.26636
817.5990 21687.12892
817.7834 21493.37059
817.9677 21416.03929
818.1520 21651.16658
818.3363 21407.58118
818.5206 21180.95296
818.7049 21289.88442
818.8891 21301.94695
819.0734 21297.11375
819.2576 21237.10826
819.4418 20958.91219
819.6260 20958.35924
819.8102 21075.93312
819.9944 20886.80321
820.1785 20734.94633
820.3627 20950.84319
820.5468 20909.78142
820.7309 20744.89945
820.9150 20554.56124
821.0991 20413.37427
821.2831 20647.76430
821.4672 20474.42422
821.6512 20320.00738
821.8352 20369.93685
822.0192 20714.95815
822.2032 20441.14473
822.3872 20631.99494
822.5711 20474.85429
822.7551 20435.20562
822.9390 20560.72562
823.1229 20639.71578
823.3068 20609.30344
823.4907 20258.54783
823.6745 20289.30833
823.8584 20182.81395
824.0422 20151.82818
824.2261 20157.13242
824.4099 20329.53043
824.5937 20492.93786
824.7774 20322.89501
824.9612 20300.71551
825.1449 20208.49548
825.3287 20137.92247
825.5124 20070.21663
825.6961 20242.40984
825.8798 20261.57883
826.0634 20393.48850
826.2471 20108.24741
826.4307 20160.79829
826.6144 20159.85622
826.7980 20248.36943
826.9816 19995.01522
827.1652 20161.26932
827.3487 19999.70506
827.5323 19705.57579
827.7158 19558.14252
827.8993 19877.44133
828.0828 19796.95616
828.2663 19491.91121
828.4498 19671.64095
828.6333 20008.14270
828.8167 19793.10598
829.0001 19761.77205
829.1836 19858.00611
829.3670 19912.44112
829.5504 20022.43752
829.7337 19658.75923
829.9171 19620.74893
830.1004 19647.22916
830.2837 19564.40931
830.4671 19360.06298
830.6504 19120.43016
830.8336 19278.71767
831.0169 19192.00667
831.2002 19381.21850
831.3834 19377.16352
831.5666 19361.08697
831.7498 19467.45847
831.9330 19626.97475
832.1162 19529.08185
832.2993 19326.98829
832.4825 19397.54081
832.6656 19291.16932
832.8487 19115.06448
833.0318 19118.07500
833.2149 18945.96370
833.3980 19081.74403
833.5811 19165.19876
833.7641 19126.16447
833.9471 18995.68838
834.1301 18788.33155
834.3131 18580.76992
834.4961 18789.80609
834.6791 18777.70259
834.8620 19149.94139
835.0450 19085.57373
835.2279 19182.64745
835.4108 19071.72946
835.5937 19221.47694
835.7766 18911.29159
835.9594 18934.00357
836.1423 18915.79712
836.3251 19216.82805
836.5079 19173.45207
836.6907 18864.18831
836.8735 18780.03727
837.0563 18842.68464
837.2390 18765.74245
837.4218 18567.33524
837.6045 18785.46439
837.7872 18961.54875
837.9699 18659.18664
838.1526 18535.55077
838.3352 18586.91382
838.5179 18701.27240
838.7005 18644.93278
838.8831 18659.63719
839.0658 18756.40372
839.2483 18946.59857
839.4309 18871.06949
839.6135 18872.40067
839.7960 18555.00647
839.9786 18602.47838
840.1611 18321.59947
840.3436 18551.52492
840.5261 18314.14486
840.7085 18178.81509
840.8910 18122.96698
841.0734 18271.15800
841.2559 18189.40309
841.4383 18338.86385
841.6207 18583.75995
841.8030 18301.61130
841.9854 18181.70272
842.1678 18061.75320
842.3501 18128.51698
842.5324 18028.73994
842.7147 18150.40976
842.8970 18423.91599
843.0793 18224.13664
843.2615 18218.97576
843.4438 18410.48131
843.6260 18381.03152
843.8082 18316.23379
843.9904 18334.33784
844.1726 18005.14734
844.3548 17817.73772
844.5369 17747.98390
844.7191 17839.28235
844.9012 17733.58668
845.0833 17780.89476
845.2654 18036.52222
845.4475 18166.99831
845.6296 17894.16791
845.8116 17773.56303
845.9936 17741.79904
846.1757 17590.39271
846.3577 17532.35327
846.5397 17523.79276
846.7216 17518.44757
846.9036 17483.44778
847.0855 17221.24634
847.2675 17426.53473
847.4494 17496.32950
847.6313 17654.37125
847.8132 17740.28354
847.9950 17573.61984
848.1769 17498.39795
848.3587 17646.42513
848.5406 17428.00927
848.7224 17445.33508
848.9042 17395.73328
849.0860 17526.63944
849.2677 17303.39037
849.4495 17143.60785
849.6312 17164.76336
849.8129 17359.93478
849.9946 17607.45229
850.1763 17425.22403
850.3580 17176.55966
850.5397 17091.34368
850.7213 16898.69126
850.9029 16994.98675
851.0845 17047.55811
851.2661 17049.66752
851.4477 16994.82292
851.6293 17005.04228
851.8109 16944.87296
851.9924 16999.02125
852.1739 17103.79533
852.3554 16965.33217
852.5369 17020.32013
852.7184 16734.15745
852.8999 16627.31492
853.0813 16639.19314
853.2628 16691.86690
853.4442 16814.64263
853.6256 16716.05341
853.8070 16747.63309
853.9883 16923.12353
854.1697 16790.41515
854.3510 16489.15895
854.5324 16563.90981
854.7137 16502.22499
854.8950 16533.51795
855.0763 16541.15688
855.2575 16567.12512
855.4388 16513.85745
855.6200 16570.95482
855.8013 16540.41961
855.9825 16350.10187
856.1637 16302.54804
856.3449 16343.71221
856.5260 16374.73894
856.7072 16217.33206
856.8883 16393.17066
857.0694 16297.48956
857.2505 16244.26285
857.4316 16180.03855
857.6127 16049.86965
857.7938 16153.43543
857.9748 16058.40968
858.1558 15966.84500
858.3368 15953.92232
858.5178 15862.82867
858.6988 15977.26916
858.8798 15932.27529
859.0607 16104.98049
859.2417 16077.59915
859.4226 16070.67702
859.6035 16063.67296
859.7844 16078.76649
859.9653 15964.96087
860.1462 15857.66779
860.3270 15873.15043
860.5078 15786.48039
860.6887 15880.13400
860.8695 15781.79055
861.0503 15726.12675
861.2310 15463.82292
861.4118 15414.24159
861.5925 15471.89191
861.7733 15478.24062
861.9540 15256.56848
862.1347 15153.94477
862.3154 15128.93907
862.4960 15345.10217
862.6767 15336.27542
862.8573 15348.72707
863.0380 15184.15230
863.2186 15220.23751
863.3992 15004.19729
863.5797 15041.26553
863.7603 15081.26235
863.9409 15157.48775
864.1214 15092.38282
864.3019 15022.40373
864.4824 14881.46252
864.6629 14826.14689
864.8434 14626.46993
865.0238 14681.27358
865.2043 14763.35617
865.3847 14559.91095
865.5651 14517.00600
865.7455 14610.84393
865.9259 14652.97065
866.1063 14503.53037
866.2866 14458.02450
866.4670 14400.39466
866.6473 14357.10060
866.8276 14363.77698
867.0079 14360.43879
867.1882 14181.85592
867.3684 14005.07526
867.5487 14086.85065
867.7289 14161.74487
867.9091 14169.56811
868.0893 13921.06758
868.2695 13710.96646
868.4497 13648.36006
868.6299 13675.00413
868.8100 13704.88400
868.9901 13719.24026
869.1703 13941.03527
869.3504 13925.22495
869.5304 13861.38977
869.7105 14021.00845
869.8906 13864.13405
870.0706 13692.14563
870.2506 13680.86132
870.4306 13707.05484
870.6106 13737.42622
870.7906 13893.27664
870.9706 13768.96494
871.1505 13661.05747
871.3305 13593.57690
871.5104 13534.32916
871.6903 13396.84902
871.8702 13464.41151
872.0500 13472.00947
872.2299 13431.17297
872.4097 13292.95556
872.5896 13301.35223
872.7694 13355.48005
872.9492 13349.93005
873.1290 13002.67647
873.3087 13064.68897
873.4885 13364.18392
873.6682 13314.09060
873.8480 13194.40731
874.0277 13094.69171
874.2074 12826.44876
874.3870 12876.99263
874.5667 12837.36443
874.7463 13038.80264
874.9260 12848.25963
875.1056 12835.68510
875.2852 12802.32369
875.4648 12829.35688
875.6444 12810.24933
875.8239 12908.98190
876.0035 12805.08845
876.1830 12669.65627
876.3625 12590.64564
876.5420 12614.56591
876.7215 12601.68419
876.9010 12524.61913
877.0804 12555.74825
877.2599 12346.42537
877.4393 12539.58978
877.6187 12615.48750
877.7981 12673.54741
877.9775 12565.41466
878.1568 12632.56756
878.3362 12520.09312
878.5155 12513.15050
878.6948 12288.24257
878.8741 12268.90975
879.0534 12218.03820
879.2327 12161.45283
879.4119 12235.93745
879.5912 12070.78925
879.7704 12242.69575
879.9496 12369.50597
880.1288 12348.82149
880.3080 12112.60877
880.4872 12174.51887
880.6663 12195.16239
880.8455 12144.80284
881.0246 12218.40684
881.2037 12175.58381
881.3828 12084.51064
881.5619 12065.44405
881.7409 12072.67338
881.9200 11976.13214
882.0990 12016.53856
882.2780 11922.74159
882.4570 11899.64050
882.6360 11910.10562
882.8150 11799.26955
882.9940 11777.35629
883.1729 11812.31512
883.3518 12021.22841
883.5308 11954.48511
883.7096 11911.78496
883.8885 11712.08752
884.0674 11611.92137
884.2463 11516.24027
884.4251 11615.56676
884.6039 11550.13416
884.7827 11603.54518
884.9615 11597.17600
885.1403 11532.93122
885.3191 11453.14236
885.4978 11341.13895
885.6765 11308.67864
885.8553 11438.17170
886.0340 11532.37827
886.2127 11433.03130
886.3913 11263.56189
886.5700 11144.00147
886.7486 11060.97682
886.9273 11041.80783
887.1059 11025.30120
887.2845 10917.20941
887.4630 10949.46492
887.6416 11026.67334
887.8202 11079.57238
887.9987 11060.99730
888.1772 11066.60873
888.3557 11042.79086
888.5342 10897.52843
888.7127 11077.91352
888.8912 11091.10244
889.0696 11098.12697
889.2481 10917.53709
889.4265 10763.14072
889.6049 10681.85685
889.7833 10662.27826
889.9616 10591.00895
890.1400 10589.43202
890.3183 10510.35994
890.4967 10597.54197
890.6750 10775.85861
890.8533 10623.73549
891.0316 10491.70295
891.2098 10387.48182
891.3881 10355.51303
891.5663 10327.57873
891.7445 10359.05601
891.9227 10329.83150
892.1009 10299.29628
892.2791 10398.64325
892.4573 10339.06784
892.6354 10278.07933
892.8136 10343.65529
892.9917 10313.91878
893.1698 10236.75132
893.3479 10309.37229
893.5259 10339.66175
893.7040 10203.88142
893.8820 10213.34303
894.0601 10116.22836
894.2381 10223.70576
894.4161 10307.14000
894.5941 10405.99545
894.7720 10367.51412
894.9500 10369.60305
895.1279 10419.94212
895.3058 10219.32310
895.4838 10178.17941
895.6616 10079.30348
895.8395 9992.01905
896.0174 10029.57880
896.1952 10097.46896
896.3731 10162.69677
896.5509 10148.62722
896.7287 10060.35977
896.9065 10042.21477
897.0842 10120.11950
897.2620 10020.07622
897.4397 9926.09494
897.6175 9938.03460
897.7952 10028.51385
897.9729 10091.16122
898.1506 10029.76312
898.3282 9927.79475
898.5059 9906.92595
898.6835 9937.09253
898.8611 9981.71777
899.0388 9806.55500
899.2163 9627.95165
899.3939 9606.09982
899.5715 9805.53102
899.7490 9821.03414
899.9266 9732.78717
900.1041 9746.24232
900.2816 9774.85245
900.4591 9745.97609
900.6365 9801.96755
900.8140 9650.06971
900.9914 9629.52858
901.1689 9625.84224
901.3463 9694.30583
901.5237 9710.36191
901.7011 9585.39486
901.8784 9543.82109
902.0558 9448.05807
902.2331 9505.76983
902.4104 9573.70095
902.5878 9566.65594
902.7650 9485.94549
902.9423 9425.01842
903.1196 9509.27186
903.2968 9588.44633
903.4741 9538.39397
903.6513 9446.54257
903.8285 9382.48211
904.0057 9469.76654
904.1828 9330.36131
904.3600 9195.42065
904.5371 9204.90274
904.7143 9209.49019
904.8914 9271.19549
905.0685 9355.34653
905.2456 9279.89936
905.4226 9282.29548
905.5997 9383.60850
905.7767 9452.58408
905.9537 9344.43085
906.1307 9277.25748
906.3077 9229.27357
906.4847 9229.56029
906.6617 9168.10074
906.8386 9296.50838
907.0156 9177.43948
907.1925 9115.44747
907.3694 9084.09307
907.5463 9050.56782
907.7231 9071.88717
907.9000 9130.76627
908.0768 9081.71742
908.2537 8984.66418
908.4305 8921.30003
908.6073 8990.21418
908.7841 9025.74644
908.9608 8964.98320
909.1376 8940.44854
909.3143 8979.01179
909.4910 8931.72419
909.6677 8980.22009
909.8444 8940.30518
910.0211 8931.70371
910.1978 8891.11297
910.3744 8952.53155
910.5510 8981.63319
910.7277 8973.27748
910.9043 8853.22555
911.0808 8833.52409
911.2574 8834.50711
911.4340 8812.69625
911.6105 8666.36888
911.7870 8695.98251
911.9636 8739.87048
912.1401 8670.50578
912.3165 8742.18468
912.4930 8650.80432
912.6695 8583.69238
912.8459 8577.52800
913.0223 8556.24960
913.1987 8512.62787
913.3751 8521.82325
913.5515 8502.28562
913.7279 8573.22726
913.9042 8520.69686
914.0805 8437.56981
914.2568 8412.80987
914.4331 8439.00339
914.6094 8411.80636
914.7857 8457.27127
914.9620 8454.81371
915.1382 8369.59773
915.3144 8339.57451
915.4906 8446.41704
915.6668 8460.42514
915.8430 8377.85104
916.0192 8207.66484
916.1953 8247.51831
916.3715 8246.22809
916.5476 8209.20082
916.7237 8289.95222
916.8998 8251.98288
917.0759 8138.91453
917.2519 8090.17287
917.4280 8210.73679
917.6040 8158.45215
917.7800 8184.19512
917.9560 8131.70568
918.1320 8156.54754
918.3080 8180.22206
918.4839 8131.07081
918.6599 8129.92395
918.8358 8093.49058
919.0117 8070.10278
919.1876 8038.89173
919.3635 8052.40833
919.5394 8149.27725
919.7152 8106.22895
919.8911 8058.49080
920.0669 8002.19213
920.2427 7837.22825
920.4185 7820.86498
920.5942 7823.69118
920.7700 7793.58604
920.9458 7896.41455
921.1215 7891.35607
921.2972 7892.09333
921.4729 7858.83432
921.6486 7730.18093
921.8243 7570.54176
921.9999 7600.91314
922.1756 7602.10096
922.3512 7653.13634
922.5268 7589.89507
922.7024 7721.23130
922.8780 7752.60618
923.0535 7711.66729
923.2291 7626.73802
923.4046 7705.19571
923.5801 7822.23712
923.7557 7743.16505
923.9311 7724.79477
924.1066 7630.52677
924.2821 7693.35845
924.4575 7695.75457
924.6330 7638.49336
924.8084 7576.00984
924.9838 7501.54569
925.1592 7504.35141
925.3345 7481.49608
925.5099 7416.47307
925.6852 7383.17310
925.8606 7444.18209
926.0359 7356.13991
926.2112 7339.42849
926.3864 7291.48554
926.5617 7166.49801
926.7370 7155.00890
926.9122 7161.19377
927.0874 7125.41575
927.2626 7159.78067
927.4378 7134.77497
927.6130 7159.39155
927.7882 7121.09454
927.9633 7017.42636
928.1384 6996.31180
928.3135 6981.21827
928.4886 6898.82849
928.6637 6949.16756
928.8388 6974.39854
929.0139 6953.42734
929.1889 6926.25079
929.3639 6906.38550
929.5389 6909.72368
929.7139 6911.19822
929.8889 6930.14193
930.0639 6927.66389
930.2388 6828.43980
930.4138 6783.38449
930.5887 6791.96548
930.7636 6795.46751
930.9385 6790.04039
931.1134 6759.87381
931.2882 6747.81128
931.4631 6650.81948
931.6379 6609.90106
931.8127 6534.90444
931.9875 6543.09632
932.1623 6558.74280
932.3371 6534.53581
932.5118 6509.91922
932.6866 6467.73107
932.8613 6505.94617
933.0360 6499.61794
933.2107 6468.69361
933.3854 6420.75067
933.5600 6446.04308
933.7347 6319.04854
933.9093 6342.33394
934.0839 6370.26824
934.2586 6432.89512
934.4331 6386.34479
934.6077 6340.71605
934.7823 6296.29560
934.9568 6368.67082
935.1314 6273.09212
935.3059 6286.21960
935.4804 6187.30271
935.6549 6204.58756
935.8293 6208.86782
936.0038 6165.96287
936.1782 6196.25233
936.3526 6207.94623
936.5271 6141.05957
936.7015 6090.67954
936.8758 6096.43433
937.0502 6032.16908
937.2246 6047.44692
937.3989 6148.55514
937.5732 6069.38067
937.7475 6027.56115
937.9218 5997.80416
938.0961 5965.42577
938.2703 5958.89275
938.4446 5922.86898
938.6188 5962.96821
938.7930 5945.41712
938.9672 5929.75016
939.1414 5980.06875
939.3156 5883.81422
939.4897 5870.78914
939.6639 5801.09676
939.8380 5797.82001
940.0121 5786.33091
940.1862 5799.62222
940.3603 5819.18032
940.5344 5851.14912
940.7084 5821.67885
940.8824 5786.16707
941.0565 5768.90269
941.2305 5716.80237
941.4045 5632.65133
941.5784 5609.07921
941.7524 5627.98196
941.9263 5703.44961
942.1003 5699.39463
942.2742 5684.17822
942.4481 5600.51870
942.6220 5640.76129
942.7958 5608.79250
942.9697 5633.40908
943.1435 5597.52867
943.3174 5582.16890
943.4912 5521.22135
943.6650 5517.12541
943.8387 5443.62382
944.0125 5438.74965
944.1863 5481.47028
944.3600 5508.05291
944.5337 5501.94997
944.7074 5534.41027
944.8811 5484.78799
945.0548 5467.87177
945.2284 5383.96649
945.4021 5394.30873
945.5757 5408.86979
945.7493 5379.50191
945.9229 5239.25701
946.0965 5169.52368
946.2701 5161.00413
946.4436 5216.77032
946.6172 5213.10445
946.7907 5188.07827
946.9642 5200.63232
947.1377 5175.11463
947.3112 5158.73088
947.4847 5174.66408
947.6581 5197.31461
947.8315 5207.43158
948.0050 5121.58073
948.1784 5059.38392
948.3518 5094.15843
948.5251 5101.01912
948.6985 5183.08123
948.8718 5147.26226
949.0452 5032.92416
949.2185 5017.05240
949.3918 5014.20573
949.5651 5040.93172
949.7383 5012.28064
949.9116 4991.71903
950.0848 5039.94870
950.2581 5040.68596
950.4313 5069.76712
950.6045 5091.02504
950.7776 5096.26784
950.9508 4993.23453
951.1239 4973.51259
951.2971 4872.38389
951.4702 4892.76118
951.6433 4883.09477
951.8164 4858.35531
951.9895 4869.27098
952.1625 4812.21457
952.3356 4825.77212
952.5086 4805.55867
952.6816 4831.56788
952.8546 4787.49559
953.0276 4760.60576
953.2006 4765.58232
953.3735 4766.62679
953.5465 4795.50315
953.7194 4780.67585
953.8923 4733.18346
954.0652 4745.34839
954.2381 4715.81668
954.4109 4693.78054
954.5838 4687.55471
954.7566 4666.23536
954.9294 4624.08816
955.1022 4617.08411
955.2750 4628.85993
955.4478 4600.90515
955.6206 4649.29866
955.7933 4648.60235
955.9660 4615.05662
956.1388 4644.87504
956.3115 4621.75348
956.4841 4563.63212
956.6568 4528.83713
956.8295 4540.16240
957.0021 4516.01685
957.1747 4507.92737
957.3473 4497.21650
957.5199 4469.09789
957.6925 4471.84216
957.8651 4481.34474
958.0376 4471.98552
958.2102 4441.24551
958.3827 4484.02758
958.5552 4527.38308
958.7277 4486.75138
958.9001 4443.64163
959.0726 4378.84390
959.2450 4335.01737
959.4175 4346.15832
959.5899 4300.52958
959.7623 4272.63624
959.9347 4243.18645
960.1070 4225.67632
960.2794 4267.80304
960.4517 4243.84180
960.6241 4276.11779
960.7964 4272.32905
960.9687 4275.83108
961.1409 4297.80578
961.3132 4265.79603
961.4855 4254.73700
961.6577 4206.54829
961.8299 4173.78079
962.0021 4152.21568
962.1743 4137.85942
962.3465 4100.77071
962.5186 4094.70872
962.6908 4092.57883
962.8629 4071.03420
963.0350 4037.14032
963.2071 4064.54214
963.3792 4075.92885
963.5513 4095.42551
963.7233 4128.43876
963.8954 4117.48213
964.0674 4098.49746
964.2394 4068.96575
964.4114 4056.96465
964.5834 4061.53162
964.7553 4031.20121
964.9273 4023.31653
965.0992 4008.30492
965.2711 4048.13791
965.4430 4026.65472
965.6149 3979.40808
965.7868 3964.62174
965.9587 3977.70826
966.1305 4005.21248
966.3023 3997.30733
966.4741 3980.84166
966.6459 3959.76806
966.8177 3961.69315
966.9895 3965.19518
967.1613 3977.23723
967.3330 3954.66862
967.5047 3929.64244
967.6764 3907.91349
967.8481 3915.94153
968.0198 3884.75096
968.1915 3867.71186
968.3631 3837.64768
968.5347 3822.02168
968.7064 3829.86540
968.8780 3842.46041
969.0496 3831.17610
969.2211 3801.13240
969.3927 3812.96966
969.5642 3756.89627
969.7358 3741.37267
969.9073 3729.24870
970.0788 3764.14608
970.2503 3776.10622
970.4217 3780.50935
970.5932 3765.10863
970.7646 3748.00809
970.9360 3758.53465
971.1074 3791.50695
971.2788 3811.51560
971.4502 3758.41177
971.6216 3710.55074
971.7929 3676.55446
971.9643 3689.12899
972.1356 3714.44188
972.3069 3700.70001
972.4782 3685.19689
972.6494 3676.73878
972.8207 3652.81850
972.9919 3636.86482
973.1632 3620.97259
973.3344 3614.95156
973.5056 3569.48665
973.6768 3565.59551
973.8479 3594.00084
974.0191 3620.33772
974.1902 3621.50506
974.3614 3606.41153
974.5325 3594.12372
974.7036 3577.86285
974.8746 3569.75289
975.0457 3568.91322
975.2167 3551.83316
975.3878 3502.49760
975.5588 3474.64522
975.7298 3483.61532
975.9008 3457.99523
976.0718 3466.16663
976.2427 3459.87937
976.4137 3442.79931
976.5846 3444.97015
976.7555 3449.88528
976.9264 3449.43472
977.0973 3454.43177
977.2682 3458.05667
977.4390 3479.25315
977.6098 3486.87159
977.7807 3466.69910
977.9515 3452.71148
978.1223 3490.72178
978.2930 3446.58805
978.4638 3416.60579
978.6346 3383.69493
978.8053 3348.67466
978.9760 3349.22761
979.1467 3307.71529
979.3174 3309.88613
979.4881 3311.54499
979.6587 3320.33077
979.8294 3314.96510
980.0000 3299.68725
980.1706 3300.03540
980.3412 3283.73357
980.5118 3309.84517
980.6824 3300.77267
980.8529 3313.38816
981.0235 3302.08337
981.1940 3291.08578
981.3645 3260.89872
981.5350 3266.91975
981.7055 3254.63194
981.8759 3261.36975
982.0464 3243.36811
982.2168 3208.94175
982.3872 3237.73620
982.5576 3220.02127
982.7280 3219.95983
982.8984 3239.10833
983.0687 3244.14634
983.2391 3241.44302
983.4094 3212.32090
983.5797 3193.33623
983.7500 3187.08993
983.9203 3163.06725
984.0906 3162.59622
984.2608 3154.62962
984.4311 3162.82150
984.6013 3144.16450
984.7715 3181.80617
984.9417 3173.69621
985.1119 3159.42187
985.2820 3105.66269
985.4522 3094.70606
985.6223 3114.42800
985.7924 3128.02651
985.9625 3151.86487
986.1326 3154.93682
986.3027 3122.90659
986.4727 3126.69533
986.6428 3112.56435
986.8128 3099.41639
986.9828 3084.71197
987.1528 3075.10700
987.3228 3061.34465
987.4928 3071.17490
987.6627 3064.60092
987.8327 3058.39557
988.0026 3060.13635
988.1725 3072.87471
988.3424 3055.13930
988.5123 3061.26273
988.6821 3049.58931
988.8520 3027.30741
989.0218 3004.57495
989.1916 3011.53805
989.3614 2961.15802
989.5312 2969.16557
989.7010 2957.86079
989.8707 2980.38844
990.0405 2973.26151
990.2102 2985.87700
990.3799 2970.68107
990.5496 2955.19843
990.7193 2946.78128
990.8890 2930.19273
991.0586 2923.02484
991.2283 2935.59937
991.3979 2921.87797
991.5675 2942.80822
991.7371 2942.64438
991.9067 2911.16710
992.0762 2889.23335
992.2458 2912.70307
992.4153 2926.95694
992.5848 2929.78313
992.7543 2915.50879
992.9238 2879.01399
993.0933 2899.57560
993.2627 2887.28778
993.4322 2865.08780
993.6016 2878.54296
993.7710 2854.19261
993.9404 2863.63374
994.1098 2835.96569
994.2792 2863.26511
994.4485 2843.35885
994.6179 2849.11365
994.7872 2849.42084
994.9565 2855.27803
995.1258 2862.79408
995.2951 2850.38339
995.4643 2854.68412
995.6336 2876.78170
995.8028 2849.07269
995.9720 2819.02898
996.1412 2828.63396
996.3104 2834.94170
996.4796 2844.07564
996.6487 2834.34779
996.8179 2822.46957
996.9870 2824.61994
997.1561 2795.68214
997.3252 2786.95779
997.4943 2764.30726
997.6634 2779.05263
997.8324 2787.49027
998.0014 2776.02164
998.1705 2759.49453
998.3395 2740.03883
998.5085 2717.16302
998.6774 2736.80304
998.8464 2706.39070
999.0153 2721.34088
999.1843 2722.42630
999.3532 2720.43977
999.5221 2706.30878
999.6910 2705.69439
999.8599 2725.43681
1000.0287 2734.42740
1000.1976 2742.53735
1000.3664 2735.73810
1000.5352 2741.34953
1000.7040 2742.88551
1000.8728 2724.94530
1001.0415 2697.99403
1001.2103 2677.53482
1001.3790 2680.83205
1001.5478 2654.61805
1001.7165 2661.84738
1001.8851 2659.65606
1002.0538 2655.60108
1002.2225 2674.23759
1002.3911 2663.85439
1002.5598 2640.95810
1002.7284 2634.07693
1002.8970 2617.83653
1003.0656 2619.10628
1003.2341 2600.81791
1003.4027 2590.55759
1003.5712 2567.59986
1003.7398 2581.54653
1003.9083 2576.73380
1004.0768 2565.30614
1004.2453 2555.66020
1004.4137 2585.39671
1004.5822 2573.62089
1004.7506 2588.14099
1004.9190 2564.09783
1005.0874 2555.78308
1005.2558 2563.25817
1005.4242 2559.65374
1005.5926 2555.55780
1005.7609 2551.19563
1005.9292 2540.66907
1006.0976 2568.62385
1006.2659 2559.12127
1006.4342 2587.77235
1006.6024 2553.07976
1006.7707 2548.79951
1006.9389 2545.39988
1007.1071 2549.51630
1007.2754 2548.75855
1007.4436 2536.32738
1007.6117 2532.90727
1007.7799 2520.88569
1007.9481 2519.02204
1008.1162 2516.11393
1008.2843 2494.95841
1008.4524 2509.29419
1008.6205 2503.78515
1008.7886 2525.30931
1008.9566 2504.44050
1009.1247 2496.06431
1009.2927 2485.72207
1009.4607 2480.27447
1009.6287 2465.71342
1009.7967 2467.76138
1009.9647 2459.50807
1010.1327 2435.26012
1010.3006 2422.80847
1010.4685 2413.28542
1010.6364 2417.97526
1010.8043 2415.76346
1010.9722 2403.78284
1011.1401 2405.64649
1011.3079 2392.27326
1011.4758 2408.84132
1011.6436 2396.41015
1011.8114 2404.54059
1011.9792 2407.03911
1012.1470 2427.43688
1012.3147 2418.32342
1012.4825 2430.75459
1012.6502 2423.87341
1012.8179 2415.23099
1012.9856 2382.17677
1013.1533 2391.33119
1013.3210 2361.47181
1013.4886 2362.31147
1013.6563 2358.13362
1013.8239 2355.96277
1013.9915 2375.09080
1014.1591 2355.92181
1014.3267 2371.71165
1014.4942 2365.95686
1014.6618 2364.70760
1014.8293 2376.25814
1014.9969 2356.47476
1015.1644 2393.62492
1015.3319 2381.82862
1015.4993 2354.87735
1015.6668 2332.43161
1015.8342 2326.12387
1016.0017 2322.86760
1016.1691 2334.25430
1016.3365 2326.16483
1016.5039 2331.61242
1016.6712 2329.17534
1016.8386 2322.17129
1017.0059 2314.65524
1017.1733 2339.21039
1017.3406 2322.74472
1017.5079 2324.03494
1017.6752 2309.26908
1017.8424 2290.36633
1018.0097 2296.20304
1018.1769 2292.43478
1018.3441 2281.58055
1018.5113 2292.27094
1018.6785 2282.58405
1018.8457 2276.05103
1019.0129 2273.73682
1019.1800 2291.55415
1019.3471 2294.78994
1019.5142 2282.70693
1019.6813 2284.42722
1019.8484 2269.06746
1020.0155 2273.65491
1020.1826 2262.30916
1020.3496 2248.38297
1020.5166 2241.35844
1020.6836 2230.50420
1020.8506 2225.09757
1021.0176 2216.84425
1021.1846 2238.57320
1021.3515 2229.80790
1021.5185 2236.44331
1021.6854 2229.66454
1021.8523 2234.64110
1022.0192 2239.31047
1022.1861 2239.65863
1022.3529 2214.55053
1022.5198 2231.30291
1022.6866 2227.22745
1022.8534 2236.34092
1023.0202 2215.36972
1023.1870 2211.49905
1023.3538 2194.13228
1023.5205 2211.58097
1023.6873 2200.29667
1023.8540 2204.80220
1024.0207 2192.63726
1024.1874 2195.13578
1024.3541 2189.83155
1024.5207 2199.98947
1024.6874 2177.48229
1024.8540 2179.98082
1025.0206 2182.80701
1025.1872 2183.05277
1025.3538 2168.51219
1025.5204 2181.14816
1025.6870 2156.75685
1025.8535 2164.62105
1026.0201 2163.20795
1026.1866 2158.27235
1026.3531 2145.55446
1026.5196 2156.61349
1026.6860 2160.27936
1026.8525 2164.17050
1027.0189 2142.42107
1027.1853 2137.50594
1027.3518 2128.90448
1027.5181 2141.62236
1027.6845 2145.88214
1027.8509 2126.97938
1028.0172 2119.36094
1028.1836 2120.20061
1028.3499 2113.62663
1028.5162 2110.94379
1028.6825 2103.77590
1028.8488 2107.52368
1029.0150 2099.51612
1029.1813 2095.76834
1029.3475 2083.86964
1029.5137 2099.22941
1029.6799 2085.01650
1029.8461 2093.41318
1030.0123 2073.11781
1030.1784 2094.62148
1030.3446 2085.85617
1030.5107 2082.57942
1030.6768 2084.99602
1030.8429 2081.00249
1031.0090 2076.25120
1031.1750 2077.88957
1031.3411 2068.14124
1031.5071 2077.35710
1031.6732 2070.88552
1031.8392 2059.78553
1032.0051 2064.10674
1032.1711 2064.41394
1032.3371 2055.05472
1032.5030 2042.48019
1032.6690 2048.99273
1032.8349 2054.17410
1033.0008 2036.80732
1033.1667 2045.24495
1033.3325 2029.00456
1033.4984 2036.76636
1033.6642 2024.99054
1033.8300 2045.24495
1033.9959 2029.84423
1034.1616 2037.56507
1034.3274 2026.77227
1034.4932 2034.32928
1034.6589 2026.03500
1034.8247 2024.35567
1034.9904 2006.23115
1035.1561 2021.05844
1035.3218 2013.54240
1035.4875 2015.07837
1035.6531 2004.18318
1035.8188 2019.60438
1035.9844 1997.99831
1036.1500 1996.23706
1036.3156 1991.54721
1036.4812 1987.32840
1036.6468 1989.43780
1036.8123 1992.07968
1036.9779 1989.72452
1037.1434 1995.56123
1037.3089 1989.13061
1037.4744 1994.20957
1037.6399 1987.18504
1037.8053 1978.93172
1037.9708 1981.69648
1038.1362 1989.51972
1038.3016 1982.20847
1038.4670 1995.39739
1038.6324 1986.16105
1038.7978 1951.44798
1038.9632 1976.06457
1039.1285 1975.02010
1039.2938 1951.73470
1039.4592 1956.87510
1039.6245 1955.48248
1039.7897 1961.33967
1039.9550 1949.42049
1040.1203 1945.24264
1040.2855 1948.49891
1040.4507 1960.23377
1040.6159 1944.42345
1040.7811 1953.35259
1040.9463 1952.12381
1041.1115 1936.19062
1041.2766 1932.38139
1041.4418 1929.47328
1041.6069 1916.16148
1041.7720 1921.93675
1041.9371 1907.68289
1042.1021 1924.86535
1042.2672 1923.08362
1042.4323 1925.97125
1042.5973 1912.12698
1042.7623 1908.91167
1042.9273 1913.02809
1043.0923 1911.84027
1043.2572 1899.38862
1043.4222 1900.51500
1043.5871 1893.32663
1043.7521 1901.08843
1043.9170 1909.32127
1044.0819 1896.99249
1044.2467 1896.84914
1044.4116 1890.00892
1044.5765 1878.90893
1044.7413 1880.73162
1044.9061 1876.82000
1045.0709 1879.81004
1045.2357 1877.12720
1045.4005 1869.61115
1045.5652 1871.63864
1045.7300 1863.46725
1045.8947 1859.61706
1046.0594 1863.48772
1046.2241 1851.22039
1046.3888 1862.13607
1046.5535 1857.77389
1046.7181 1855.84880
1046.8828 1851.42519
1047.0474 1830.98646
1047.2120 1837.39660
1047.3766 1838.01099
1047.5412 1828.01691
1047.7057 1831.47797
1047.8703 1842.37317
1048.0348 1833.79218
1048.1993 1837.97003
1048.3639 1835.24624
1048.5283 1817.49035
1048.6928 1822.48739
1048.8573 1802.31490
1049.0217 1813.16913
1049.1861 1800.14405
1049.3506 1813.82448
1049.5150 1804.42431
1049.6793 1817.55179
1049.8437 1806.22652
1050.0081 1814.78703
1050.1724 1798.58760
1050.3367 1797.80937
1050.5010 1790.35476
1050.6653 1799.87782
1050.8296 1779.88964
1050.9939 1799.83686
1051.1581 1778.16935
1051.3224 1780.79075
1051.4866 1774.11437
1051.6508 1782.57248
1051.8150 1779.66436
1051.9791 1767.21271
1052.1433 1764.38652
1052.3074 1755.21162
1052.4716 1748.59668
1052.6357 1756.03080
1052.7998 1754.84298
1052.9639 1759.69667
1053.1279 1754.41291
1053.2920 1750.95184
1053.4560 1739.52418
1053.6201 1754.59723
1053.7841 1744.88985
1053.9481 1741.36735
1054.1120 1738.99170
1054.2760 1746.58967
1054.4399 1751.19760
1054.6039 1732.72492
1054.7678 1735.42824
1054.9317 1735.75591
1055.0956 1731.57806
1055.2595 1734.89577
1055.4233 1714.76423
1055.5872 1709.50095
1055.7510 1698.70816
1055.9148 1709.21424
1056.0786 1715.76774
1056.2424 1718.69633
1056.4062 1699.85502
1056.5699 1711.93804
1056.7336 1694.03879
1056.8974 1696.25060
1057.0611 1687.01426
1057.2248 1682.03769
1057.3885 1684.29046
1057.5521 1685.51924
1057.7158 1669.87276
1057.8794 1679.66205
1058.0430 1688.77551
1058.2066 1671.73641
1058.3702 1663.11446
1058.5338 1684.80245
1058.6973 1656.60192
1058.8609 1681.71002
1059.0244 1655.29122
1059.1879 1673.27239
1059.3514 1652.62886
1059.5149 1663.15542
1059.6784 1650.13034
1059.8418 1648.71724
1060.0053 1650.82665
1060.1687 1644.23219
1060.3321 1633.99235
1060.4955 1641.83607
1060.6589 1646.44400
1060.8222 1650.56041
1060.9856 1636.18367
1061.1489 1644.43699
1061.3122 1630.14217
1061.4755 1643.82260
1061.6388 1636.06080
1061.8021 1650.92905
1061.9654 1621.00822
1062.1286 1623.50675
1062.2918 1619.65657
1062.4550 1623.99826
1062.6182 1622.17557
1062.7814 1627.21357
1062.9446 1616.93277
1063.1077 1616.48221
1063.2709 1604.11248
1063.4340 1607.63499
1063.5971 1594.46655
1063.7602 1602.92466
1063.9233 1593.21729
1064.0863 1599.34072
1064.2494 1592.72578
1064.4124 1602.84274
1064.5754 1591.14884
1064.7384 1595.98205
1064.9014 1586.56139
1065.0644 1581.35955
1065.2274 1580.21269
1065.3903 1591.86563
1065.5532 1564.75052
1065.7162 1580.49940
1065.8790 1574.13022
1066.0419 1568.76454
1066.2048 1584.10383
1066.3677 1567.04425
1066.5305 1572.45089
1066.6933 1557.74647
1066.8561 1560.94130
1067.0189 1561.57617
1067.1817 1552.64703
1067.3445 1548.16198
1067.5072 1541.91567
1067.6699 1551.09057
1067.8327 1542.30479
1067.9954 1545.21290
1068.1580 1536.14040
1068.3207 1532.69981
1068.4834 1528.89059
1068.6460 1535.56697
1068.8086 1524.48746
1068.9713 1526.96550
1069.1339 1522.02990
1069.2964 1524.54890
1069.4590 1511.38046
1069.6216 1520.16624
1069.7841 1513.69466
1069.9466 1504.04873
1070.1091 1500.71054
1070.2716 1508.28802
1070.4341 1513.71514
1070.5966 1506.83397
1070.7590 1496.16405
1070.9214 1509.70112
1071.0839 1493.35833
1071.2463 1506.85445
1071.4086 1488.29985
1071.5710 1480.57901
1071.7334 1481.45963
1071.8957 1492.21147
1072.0580 1471.54747
1072.2204 1481.48011
1072.3827 1475.21333
1072.5449 1476.54451
1072.7072 1473.88215
1072.8695 1472.03898
1073.0317 1458.56334
1073.1939 1463.66279
1073.3561 1456.37202
1073.5183 1472.20282
1073.6805 1458.89102
1073.8427 1466.09987
1074.0048 1448.93789
1074.1669 1461.86057
1074.3291 1454.18069
1074.4912 1454.48789
1074.6532 1431.98071
1074.8153 1443.28550
1074.9774 1437.69454
1075.1394 1441.13513
1075.3014 1434.88882
1075.4635 1442.09768
1075.6255 1427.72093
1075.7874 1434.99122
1075.9494 1419.05803
1076.1114 1426.49215
1076.2733 1421.47463
1076.4352 1430.34233
1076.5971 1401.67077
1076.7590 1420.83976
1076.9209 1405.41855
1077.0828 1414.77777
1077.2446 1406.89309
1077.4064 1404.43553
1077.5683 1400.48295
1077.7301 1397.16524
1077.8918 1389.34200
1078.0536 1400.66727
1078.2154 1390.52982
1078.3771 1393.13074
1078.5388 1391.14421
1078.7006 1400.31911
1078.8623 1384.09920
1079.0239 1384.91839
1079.1856 1380.28998
1079.3473 1389.26008
1079.5089 1374.65806
1079.6705 1381.53924
1079.8321 1375.98924
1079.9937 1378.81544
1080.1553 1363.27136
1080.3169 1368.32984
1080.4784 1362.41121
1080.6399 1374.10511
1080.8014 1364.78685
1080.9629 1363.66047
1081.1244 1359.40070
1081.2859 1360.19940
1081.4474 1347.07192
1081.6088 1363.57855
1081.7702 1343.20126
1081.9316 1343.26270
1082.0930 1339.86307
1082.2544 1340.76418
1082.4158 1342.25920
1082.5771 1338.77765
1082.7385 1334.68171
1082.8998 1337.32359
1083.0611 1327.94390
1083.2224 1331.28209
1083.3837 1330.62674
1083.5449 1329.80755
1083.7062 1318.23653
1083.8674 1323.62268
1084.0286 1318.13413
1084.1898 1321.43136
1084.3510 1311.58063
1084.5122 1315.43081
1084.6734 1314.61162
1084.8345 1320.30497
1084.9956 1300.31680
1085.1567 1316.08616
1085.3178 1298.76034
1085.4789 1310.04465
1085.6400 1300.35776
1085.8010 1302.48765
1085.9621 1294.91016
1086.1231 1298.88322
1086.2841 1276.08933
1086.4451 1295.05352
1086.6061 1291.98157
1086.7670 1290.11791
1086.9280 1287.88563
1087.0889 1283.38010
1087.2498 1283.15482
1087.4107 1291.63341
1087.5716 1280.69726
1087.7325 1269.65871
1087.8933 1265.97236
1088.0542 1294.78728
1088.2150 1271.15372
1088.3758 1282.02844
1088.5366 1272.23915
1088.6974 1274.73767
1088.8582 1262.36794
1089.0189 1275.72069
1089.1796 1260.42237
1089.3404 1275.16774
1089.5011 1260.13565
1089.6618 1280.67678
1089.8224 1264.80502
1089.9831 1274.22568
1090.1438 1258.51776
1090.3044 1276.45796
1090.4650 1266.97587
1090.6256 1272.36203
1090.7862 1259.15263
1090.9468 1267.44690
1091.1073 1256.81794
1091.2679 1264.12919
1091.4284 1271.48140
1091.5889 1262.94137
1091.7494 1254.93381
1091.9099 1260.83196
1092.0703 1249.97773
1092.2308 1260.48381
1092.3912 1261.67163
1092.5516 1262.30650
1092.7121 1245.98419
1092.8724 1262.98233
1093.0328 1252.90632
1093.1932 1254.93381
1093.3535 1253.15208
1093.5139 1266.07476
1093.6742 1259.31646
1093.8345 1262.57273
1093.9948 1248.83086
1094.1550 1263.06425
1094.3153 1244.26389
1094.4755 1262.08122
1094.6358 1252.96776
1094.7960 1253.70503
1094.9562 1253.74599
1095.1163 1264.37495
1095.2765 1252.55817
1095.4367 1251.41130
1095.5968 1252.41481
1095.7569 1268.45040
1095.9170 1254.11462
1096.0771 1262.87993
1096.2372 1249.54765
1096.3973 1254.68805
1096.5573 1244.91924
1096.7173 1260.93436
1096.8773 1254.81093
1097.0374 1252.04618
1097.1973 1250.40780
1097.3573 1254.15558
1097.5173 1246.84433
1097.6772 1258.68159
1097.8371 1242.78936
1097.9970 1247.99120
1098.1569 1254.60614
1098.3168 1256.40835
1098.4767 1258.45632
1098.6365 1253.33640
1098.7964 1254.91333
1098.9562 1249.42478
1099.1160 1249.03566
1099.2758 1261.91738
1099.4356 1250.96075
1099.5953 1260.42237
1099.7551 1251.75946
1099.9148 1255.89636
1100.0745 1250.42828
1100.2342 1253.56167
1100.3939 1243.66998
1100.5536 1259.33694
1100.7132 1256.42883
1100.8729 1256.92034
1101.0325 1249.13806
1101.1921 1251.67754
1101.3517 1245.10356
1101.5113 1261.52827
1101.6709 1252.06665
1101.8304 1248.58511
1101.9899 1240.37275
1102.1495 1261.95834
1102.3090 1249.60909
1102.4685 1259.21407
1102.6279 1239.98364
1102.7874 1258.37440
1102.9468 1240.88475
1103.1063 1248.19599
1103.2657 1248.09360
1103.4251 1251.12459
1103.5845 1249.07662
1103.7438 1253.25448
1103.9032 1241.72441
1104.0625 1257.08418
1104.2219 1247.06961
1104.3812 1251.65706
1104.5405 1247.84784
1104.6997 1255.81444
1104.8590 1254.25798
1105.0183 1258.08768
1105.1775 1250.03917
1105.3367 1250.10060
1105.4959 1254.38086
1105.6551 1266.95539
1105.8143 1246.86481
1105.9735 1252.14857
1106.1326 1247.06961
1106.2917 1254.11462
1106.4508 1240.98714
1106.6099 1247.95024
1106.7690 1243.75190
1106.9281 1263.90391
1107.0872 1237.93567
1107.2462 1249.93677
1107.4052 1243.64950
1107.5642 1256.32643
1107.7232 1248.03216
1107.8822 1253.82791
1108.0412 1241.06906
1108.2001 1252.82440
1108.3591 1248.99470
1108.5180 1254.19654
1108.6769 1243.60854
1108.8358 1257.61665
1108.9947 1246.63954
1109.1535 1259.23455
1109.3124 1252.35337
1109.4712 1254.70853
1109.6300 1252.35337
1109.7888 1251.75946
1109.9476 1238.50910
1110.1064 1260.42237
1110.2651 1248.31887
1110.4239 1252.70153
1110.5826 1240.24988
1110.7413 1251.61610
1110.9000 1244.05910
1111.0587 1252.39433
1111.2173 1242.35928
1111.3760 1250.12108
1111.5346 1254.93381
1111.6932 1264.60022
1111.8518 1252.51721
1112.0104 1250.83787
1112.1690 1245.65651
1112.3276 1251.22699
1112.4861 1243.73142
1112.6446 1251.28843
1112.8032 1243.54710
1112.9617 1259.29598
1113.1201 1248.27791
1113.2786 1260.60668
1113.4371 1239.28733
1113.5955 1256.69506
1113.7539 1247.97072
1113.9123 1252.41481
1114.0707 1247.04913
1114.2291 1257.55521
1114.3875 1244.53013
1114.5458 1258.49728
1114.7042 1242.80984
1114.8625 1242.42072
1115.0208 1245.79987
1115.1791 1257.73953
1115.3374 1247.37681
1115.4956 1255.30245
1115.6539 1241.54010
1115.8121 1254.15558
1115.9703 1242.33880
1116.1285 1249.58861
1116.2867 1239.94268
1116.4449 1254.23750
1116.6030 1247.90928
1116.7612 1255.71204
1116.9193 1242.03161
1117.0774 1251.80042
1117.2355 1249.17902
1117.3936 1262.57273
1117.5516 1243.93622
1117.7097 1256.79746
1117.8677 1249.97773
1118.0257 1258.23104
1118.1837 1244.53013
1118.3417 1258.39488
1118.4997 1252.35337
1118.6577 1249.54765
1118.8156 1253.11112
1118.9735 1249.81389
1119.1315 1245.18548
1119.2894 1259.52126
1119.4472 1248.17551
1119.6051 1253.35687
1119.7630 1241.64249
1119.9208 1258.82495
1120.0786 1245.36980
1120.2364 1251.53418
1120.3942 1250.40780
1120.5520 1249.83437
1120.7098 1255.13861
1120.8675 1253.45927
1121.0253 1252.53769
1121.1830 1259.39838
1121.3407 1258.55872
1121.4984 1254.31942
1121.6560 1254.42182
