# Averages = 100
# wavelength [µm]	intensity
446.8250 14.33578
447.0374 36746.70328
447.2498 1231.25929
447.4621 1219.66779
447.6745 1232.01704
447.8868 1243.34231
448.0992 1243.13751
448.3115 1237.97663
448.5238 1245.24692
448.7360 1240.00412
448.9483 1248.48271
449.1606 1234.72036
449.3728 1266.34100
449.5850 1233.75781
449.7972 1242.29784
450.0094 1240.06556
450.2216 1253.72551
450.4337 1253.74599
450.6459 1665.44915
450.8580 1987.55367
451.0701 2012.92800
451.2822 2038.50713
451.4943 2018.21176
451.7064 1995.62267
451.9184 1992.98079
452.1305 2065.80656
452.3425 2161.34430
452.5545 2091.75432
452.7665 2089.70635
452.9785 2207.68983
453.1905 2233.82191
453.4024 2158.02659
453.6143 2249.44792
453.8263 2234.00623
454.0382 2334.76629
454.2501 2214.50957
454.4619 2204.08541
454.6738 2327.61888
454.8856 2391.80222
455.0975 2244.73759
455.3093 2246.84700
455.5211 2321.43402
455.7329 2289.21947
455.9446 2321.16778
456.1564 2333.98807
456.3681 2380.76367
456.5798 2446.13483
456.7916 2382.75020
457.0033 2385.10537
457.2149 2343.90023
457.4266 2369.17217
457.6382 2421.76401
457.8499 2397.55702
458.0615 2507.47150
458.2731 2428.97286
458.4847 2502.80213
458.6963 2527.82831
458.9078 2554.92293
459.1194 2683.39201
459.3309 2703.72834
459.5424 2557.76961
459.7539 2478.20602
459.9654 2531.51465
460.1769 2575.17735
460.3883 2575.07495
460.5998 2441.54738
460.8112 2417.62711
461.0226 2493.68867
461.2340 2593.60906
461.4454 2546.26003
461.6567 2480.68407
461.8681 2479.72152
462.0794 2446.70827
462.2907 2545.76851
462.5020 2621.11328
462.7133 2717.77741
462.9246 2786.09765
463.1359 2625.84409
463.3471 2403.51660
463.5583 2464.07504
463.7696 2782.18603
463.9808 2653.22543
464.1919 2548.02128
464.4031 2564.01592
464.6143 2692.52595
464.8254 2532.14952
465.0365 2515.27426
465.2476 2614.06827
465.4587 2659.51270
465.6698 2514.63939
465.8809 2487.52428
466.0919 2508.22925
466.3030 2662.87137
466.5140 2619.78210
466.7250 2524.57204
466.9360 2570.15982
467.1469 2535.16004
467.3579 2432.14721
467.5688 2423.21806
467.7798 2515.15138
467.9907 2689.53592
468.2016 2517.44511
468.4125 2500.28313
468.6233 2415.27195
468.8342 2413.71549
469.0450 2680.52486
469.2559 2666.70107
469.4667 2642.41216
469.6775 2447.28170
469.8882 2471.22245
470.0990 2523.24086
470.3098 2659.88133
470.5205 2543.43383
470.7312 2671.67763
470.9419 2761.84970
471.1526 2614.04779
471.3633 2490.71911
471.5739 2550.33548
471.7846 2519.63643
471.9952 2373.26811
472.2058 2432.70016
472.4164 2414.61660
472.6270 2457.95161
472.8376 2490.26856
473.0481 2621.97343
473.2587 2668.56472
473.4692 2617.85701
473.6797 2545.21556
473.8902 2487.07373
474.1007 2402.67694
474.3111 2387.27621
474.5216 2350.22846
474.7320 2450.88612
474.9424 2580.95262
475.1528 2638.27526
475.3632 2470.19847
475.5736 2482.32244
475.7840 2427.21160
475.9943 2448.01897
476.2046 2484.26801
476.4149 2493.97538
476.6252 2579.25280
476.8355 2713.18996
477.0458 2721.87335
477.2561 2764.65541
477.4663 2643.04703
477.6765 2590.02512
477.8867 2552.48585
478.0969 2563.44248
478.3071 2573.57993
478.5173 2534.52517
478.7274 2604.79097
478.9375 2745.09731
479.1477 2733.05526
479.3578 2730.16762
479.5679 2814.66681
479.7779 2682.14275
479.9880 2641.08098
480.1980 2713.76339
480.4081 2784.70503
480.6181 2712.82132
480.8281 2612.24558
481.0381 2737.80654
481.2480 2778.56112
481.4580 2699.79624
481.6679 2701.80325
481.8778 2642.82175
482.0877 2705.32576
482.2976 2750.09436
482.5075 2791.56572
482.7174 2755.82867
482.9272 2762.13641
483.1371 2702.80676
483.3469 2728.50877
483.5567 2808.87106
483.7665 2830.84576
483.9762 2824.27178
484.1860 2798.52882
484.3957 2840.75793
484.6055 2773.03161
484.8152 2822.18286
485.0249 2855.58523
485.2346 2829.18691
485.4442 2847.51623
485.6539 2913.25603
485.8635 2915.59071
486.0732 2842.70350
486.2828 2876.24923
486.4924 2879.54646
486.7019 2866.19370
486.9115 2896.44220
487.1210 2929.16874
487.3306 2939.79770
487.5401 2981.86298
487.7496 2978.95486
487.9591 3043.50684
488.1686 3043.26108
488.3780 2997.36610
488.5875 3018.07107
488.7969 3029.56017
489.0063 3024.64505
489.2157 3063.00350
489.4251 3050.87953
489.6345 3082.27489
489.8438 3079.03910
490.0531 3069.45460
490.2625 3098.67912
490.4718 3072.03504
490.6811 3118.58537
490.8903 3164.86947
491.0996 3181.94953
491.3089 3168.41245
491.5181 3192.84472
491.7273 3198.76335
491.9365 3203.53512
492.1457 3246.27623
492.3549 3239.06738
492.5640 3235.97494
492.7732 3284.53228
492.9823 3288.34150
493.1914 3335.21951
493.4005 3342.42836
493.6096 3320.92469
493.8187 3314.14591
494.0277 3389.16300
494.2368 3384.00212
494.4458 3400.22204
494.6548 3449.20945
494.8638 3480.07234
495.0728 3433.35817
495.2817 3471.77806
495.4907 3449.39377
495.6996 3512.90128
495.9085 3516.46474
496.1174 3552.11988
496.3263 3536.26860
496.5352 3588.79900
496.7440 3578.12908
496.9529 3615.09492
497.1617 3640.40781
497.3705 3627.52609
497.5793 3681.83822
497.7881 3653.12570
497.9969 3709.56772
498.2056 3736.29371
498.4144 3743.40016
498.6231 3773.05475
498.8318 3787.10381
499.0405 3819.70748
499.2492 3784.83057
499.4578 3851.67627
499.6665 3848.15376
499.8751 3907.17622
500.0837 3925.83322
500.2923 3939.08357
500.5009 3942.46272
500.7095 3998.84330
500.9180 3998.88426
501.1266 4056.14547
501.3351 4050.26780
501.5436 4095.11831
501.7521 4086.47588
501.9606 4131.06016
502.1691 4131.16256
502.3775 4159.79317
502.5860 4202.55475
502.7944 4208.28907
503.0028 4260.22555
503.2112 4301.41020
503.4196 4274.99141
503.6279 4371.26642
503.8363 4310.62606
504.0446 4416.17837
504.2529 4432.91028
504.4612 4463.75269
504.6695 4462.60583
504.8778 4479.93164
505.0860 4507.08771
505.2943 4524.33160
505.5025 4608.15496
505.7107 4586.40554
505.9189 4674.46819
506.1271 4681.55416
506.3353 4709.09934
506.5434 4700.62075
506.7516 4758.63971
506.9597 4772.19726
507.1678 4800.43875
507.3759 4854.85328
507.5840 4843.58945
507.7920 4875.96784
508.0001 4865.89183
508.2081 4988.87235
508.4161 4953.99545
508.6241 5015.45499
508.8321 5019.98100
509.0401 5068.04683
509.2480 5092.37670
509.4560 5089.71434
509.6639 5138.29215
509.8718 5197.90852
510.0797 5200.42753
510.2876 5197.47845
510.4955 5344.33829
510.7033 5357.85488
510.9112 5414.89081
511.1190 5420.03122
511.3268 5419.45778
511.5346 5480.40533
511.7424 5512.00549
511.9501 5578.03200
512.1579 5599.88383
512.3656 5633.06092
512.5733 5630.56240
512.7810 5736.81102
512.9887 5748.01341
513.1964 5809.49343
513.4040 5801.56779
513.6117 5856.10520
513.8193 5893.58303
514.0269 5900.56660
514.2345 5987.99439
514.4421 5998.62335
514.6497 6043.78106
514.8572 6094.03821
515.0647 6095.10315
515.2723 6184.39459
515.4798 6194.18388
515.6873 6286.67015
515.8947 6250.46206
516.1022 6280.73104
516.3097 6287.20262
516.5171 6411.88296
516.7245 6419.43997
516.9319 6456.09861
517.1393 6499.18787
517.3467 6558.68136
517.5540 6575.24943
517.7614 6629.02909
517.9687 6592.43189
518.1760 6656.30803
518.3833 6727.00391
518.5906 6733.96701
518.7978 6844.74164
519.0051 6813.48963
519.2123 6931.30927
519.4196 6864.11542
519.6268 6952.97678
519.8340 7005.83486
520.0411 7078.29199
520.2483 7128.13955
520.4554 7140.09969
520.6626 7211.40996
520.8697 7221.42453
521.0768 7323.12666
521.2839 7361.15744
521.4909 7383.54173
521.6980 7528.33313
521.9050 7547.56355
522.1121 7594.70779
522.3191 7619.38582
522.5261 7665.32175
522.7331 7717.72927
522.9400 7836.14283
523.1470 7832.21073
523.3539 7855.68045
523.5608 7899.69130
523.7677 7925.51618
523.9746 7982.53163
524.1815 8051.69154
524.3884 8108.01068
524.5952 8064.04079
524.8020 8212.88716
525.0089 8140.06139
525.2157 8220.15745
525.4225 8269.34966
525.6292 8290.56661
525.8360 8313.72914
526.0427 8392.08443
526.2494 8436.81206
526.4562 8510.82565
526.6629 8460.56850
526.8695 8530.77287
527.0762 8625.08183
527.2829 8617.54530
527.4895 8785.45826
527.6961 8824.67686
527.9027 8883.06445
528.1093 8873.64380
528.3159 8904.69100
528.5224 8932.17474
528.7290 9091.22000
528.9355 9021.07707
529.1420 9186.36863
529.3485 9084.54362
529.5550 9230.46139
529.7615 9198.16493
529.9680 9304.00395
530.1744 9345.86443
530.3808 9406.42287
530.5872 9335.39931
530.7936 9399.39833
531.0000 9459.19902
531.2064 9480.02686
531.4127 9512.81484
531.6191 9602.33156
531.8254 9585.70205
532.0317 9635.59057
532.2380 9626.04704
532.4443 9745.01354
532.6505 9610.76919
532.8568 9755.70394
533.0630 9863.11990
533.2692 9796.49948
533.4754 9860.86713
533.6816 9986.22330
533.8878 9919.82815
534.0939 10042.68580
534.3001 9978.23622
534.5062 10032.26164
534.7123 10048.42011
534.9184 10032.24116
535.1245 10042.84964
535.3306 10078.75053
535.5366 10131.93628
535.7426 10200.95282
535.9487 10294.68835
536.1547 10133.73849
536.3607 10201.36242
536.5666 10175.00506
536.7726 10218.29912
536.9785 10264.54225
537.1845 10354.46856
537.3904 10235.82973
537.5963 10356.08646
537.8022 10353.81321
538.0080 10414.82220
538.2139 10385.92536
538.4197 10458.38250
538.6256 10408.28918
538.8314 10449.04376
539.0372 10421.29378
539.2430 10551.89275
539.4487 10342.59034
539.6545 10534.28022
539.8602 10428.37975
540.0659 10488.22140
540.2716 10614.00764
540.4773 10523.11879
540.6830 10633.36095
540.8887 10593.36412
541.0943 10521.66473
541.2999 10460.57382
541.5056 10493.30036
541.7112 10490.96568
541.9167 10419.14341
542.1223 10506.14113
542.3279 10466.10334
542.5334 10449.37143
542.7389 10534.11638
542.9444 10542.86121
543.1499 10537.39313
543.3554 10433.15152
543.5609 10480.54152
543.7663 10527.84960
543.9718 10340.03038
544.1772 10429.58805
544.3826 10333.90695
544.5880 10470.19927
544.7934 10394.34251
544.9987 10376.68902
545.2041 10469.07289
545.4094 10302.59351
545.6147 10293.86917
545.8200 10327.00530
546.0253 10273.86051
546.2306 10289.95755
546.4358 10165.89160
546.6411 10239.12696
546.8463 10131.75196
547.0515 10207.15817
547.2567 10158.64179
547.4619 10128.35233
547.6670 10126.52964
547.8722 10073.87636
548.0773 10151.61726
548.2824 9981.61537
548.4876 9926.56597
548.6926 9978.44102
548.8977 9983.92958
549.1028 9972.25615
549.3078 9880.99867
549.5129 9815.91422
549.7179 9770.42883
549.9229 9723.67371
550.1279 9651.01178
550.3328 9633.21493
550.5378 9438.00255
550.7427 9483.50841
550.9476 9475.74661
551.1526 9255.18037
551.3575 9340.25300
551.5623 9223.53926
551.7672 9098.42885
551.9720 9069.34769
552.1769 9002.37911
552.3817 9020.95419
552.5865 8842.49419
552.7913 8818.67632
552.9961 8697.33417
553.2008 8658.87331
553.4056 8660.85984
553.6103 8546.35791
553.8150 8578.79774
554.0197 8522.08948
554.2244 8409.75840
554.4291 8278.83175
554.6337 8293.02418
554.8384 8223.78235
555.0430 8123.75956
555.2476 8006.02184
555.4522 7928.69054
555.6568 7904.05347
555.8613 7874.39888
556.0659 7872.82195
556.2704 7693.68612
556.4750 7684.73650
556.6795 7616.51866
556.8839 7472.46454
557.0884 7487.14847
557.2929 7418.82824
557.4973 7324.37592
557.7018 7256.73151
557.9062 7202.54226
558.1106 7144.37994
558.3150 7039.05291
558.5193 7030.82008
558.7237 6944.41628
558.9280 6861.84218
559.1323 6828.50124
559.3367 6743.85870
559.5410 6687.74435
559.7452 6548.17528
559.9495 6577.80939
560.1537 6500.76480
560.3580 6438.79327
560.5622 6439.26430
560.7664 6374.22082
560.9706 6286.87495
561.1748 6273.52219
561.3789 6240.05838
561.5831 6183.10437
561.7872 6144.11105
561.9913 6094.22253
562.1954 6040.62719
562.3995 6017.68994
562.6036 5970.13610
562.8076 5865.44394
563.0117 5882.44208
563.2157 5831.09950
563.4197 5810.45598
563.6237 5781.90729
563.8277 5706.86972
564.0316 5621.65374
564.2356 5631.40207
564.4395 5601.27645
564.6434 5597.05763
564.8473 5572.97352
565.0512 5530.13002
565.2551 5501.00790
565.4590 5497.99739
565.6628 5474.40479
565.8666 5455.99355
566.0705 5409.99617
566.2743 5376.14325
566.4780 5347.28737
566.6818 5331.31321
566.8856 5365.35045
567.0893 5334.32372
567.2930 5307.67965
567.4967 5291.27542
567.7004 5296.47726
567.9041 5333.72981
568.1078 5279.29480
568.3114 5296.00623
568.5151 5294.87985
568.7187 5218.34725
568.9223 5281.83428
569.1259 5275.81326
569.3295 5325.29218
569.5330 5324.92355
569.7366 5329.67483
569.9401 5365.86244
570.1436 5354.18902
570.3471 5424.49579
570.5506 5400.51407
570.7541 5408.41923
570.9575 5442.66127
571.1609 5414.52218
571.3644 5467.89225
571.5678 5523.51508
571.7712 5538.21949
571.9746 5559.06781
572.1779 5552.02280
572.3813 5556.50785
572.5846 5668.59318
572.7879 5665.84890
572.9912 5716.31085
573.1945 5766.44513
573.3978 5754.85363
573.6010 5800.91244
573.8043 5889.01606
574.0075 5863.84652
574.2107 5930.87654
574.4139 5947.09645
574.6171 6002.65785
574.8203 5987.27760
575.0234 6067.06646
575.2266 6068.11093
575.4297 6116.81162
575.6328 6170.85752
575.8359 6222.67113
576.0390 6157.56620
576.2420 6243.70377
576.4451 6259.37073
576.6481 6376.98557
576.8512 6512.43823
577.0542 6425.03092
577.2571 6575.43375
577.4601 6610.86360
577.6631 6611.62135
577.8660 6658.23312
578.0689 6615.77873
578.2719 6706.29895
578.4748 6801.34518
578.6776 6809.88521
578.8805 6860.96155
579.0834 6881.15452
579.2862 7016.36142
579.4890 7087.71265
579.6918 7225.68430
579.8946 7174.85372
580.0974 7309.95822
580.3002 7339.01889
580.5029 7320.32094
580.7057 7445.45183
580.9084 7412.74577
581.1111 7569.31298
581.3138 7606.09450
581.5164 7618.30039
581.7191 7675.21344
581.9217 7733.76487
582.1244 7773.78218
582.3270 7836.47050
582.5296 7948.92447
582.7322 8027.89414
582.9347 8093.51106
583.1373 8071.57732
583.3398 8170.35085
583.5424 8210.20432
583.7449 8290.13654
583.9474 8313.81106
584.1498 8347.37727
584.3523 8514.12288
584.5548 8517.03100
584.7572 8609.12815
584.9596 8698.60391
585.1620 8828.56800
585.3644 8775.91473
585.5668 8880.05394
585.7691 8958.83930
585.9715 8987.32654
586.1738 9133.06000
586.3761 9163.47233
586.5784 9343.46831
586.7807 9379.36920
586.9830 9474.76358
587.1852 9494.54696
587.3875 9532.14767
587.5897 9722.75212
587.7919 9763.07662
587.9941 9744.87018
588.1963 9804.09744
588.3984 9887.65456
588.6006 9865.70034
588.8027 10108.83519
589.0048 10113.56600
589.2069 10215.65724
589.4090 10334.58278
589.6111 10428.80983
589.8131 10533.72727
590.0152 10680.46423
590.2172 10624.18605
590.4192 10841.76225
590.6212 10817.28902
590.8232 10823.76060
591.0252 11020.75471
591.2271 11118.66810
591.4291 11235.19752
591.6310 11281.72737
591.8329 11345.82879
592.0348 11479.95027
592.2367 11560.84503
592.4385 11776.68046
592.6404 11939.86261
592.8422 12065.68981
593.0440 12197.92715
593.2458 12333.44124
593.4476 12404.32144
593.6494 12489.20975
593.8512 12698.55311
594.0529 12792.78015
594.2546 12885.20498
594.4563 12935.42118
594.6580 12952.76747
594.8597 13056.02606
595.0614 13157.70771
595.2630 13315.79041
595.4647 13487.96315
595.6663 13493.08307
595.8679 13675.08605
596.0695 13905.13438
596.2711 13942.77605
596.4727 14044.21194
596.6742 14216.54851
596.8757 14386.89855
597.0773 14536.85082
597.2788 14548.31945
597.4802 14726.18553
597.6817 14876.95699
597.8832 14840.83082
598.0846 15039.03324
598.2860 15105.67414
598.4875 15095.76197
598.6889 15394.88829
598.8902 15488.58286
599.0916 15659.69065
599.2930 15655.41039
599.4943 15873.70338
599.6956 15992.89516
599.8969 16015.44330
600.0982 16060.70341
600.2995 16103.79267
600.5008 16450.47282
600.7020 16497.69898
600.9032 16665.12043
601.1045 16808.23248
601.3057 16795.20740
601.5068 17003.44486
601.7080 17164.45617
601.9092 17116.51322
602.1103 17469.93119
602.3115 17578.08442
602.5126 17693.20074
602.7137 17688.18322
602.9147 17873.64727
603.1158 18002.30066
603.3169 18211.80787
603.5179 18323.34024
603.7189 18342.81643
603.9199 18530.94284
604.1209 18544.78710
604.3219 18707.37534
604.5229 18939.47164
604.7238 18962.81849
604.9247 19080.47429
605.1257 19240.74832
605.3266 19355.90561
605.5275 19397.58177
605.7283 19547.65692
605.9292 19794.96963
606.1300 19506.28795
606.3309 19716.79866
606.5317 19968.26874
606.7325 20245.37940
606.9332 20339.83171
607.1340 20423.55268
607.3348 20466.94913
607.5355 20454.94804
607.7362 20761.75424
607.9369 20629.00490
608.1376 20899.82829
608.3383 21008.63687
608.5390 21189.26771
608.7396 21273.09107
608.9402 21552.65929
609.1409 21588.37586
609.3415 21488.82410
609.5421 21615.32713
609.7426 21764.78789
609.9432 21887.70697
610.1437 21784.85798
610.3443 22352.55492
610.5448 22303.30127
610.7453 22505.70202
610.9457 22408.15727
611.1462 22564.80640
611.3467 22540.25126
611.5471 22916.48360
611.7475 22789.61193
611.9479 23249.05324
612.1483 22938.76550
612.3487 23413.13650
612.5491 23201.90900
612.7494 23795.84042
612.9497 23469.37372
613.1501 23798.15462
613.3504 23812.92048
613.5506 24292.78004
613.7509 24159.76447
613.9512 24055.52286
614.1514 24129.70028
614.3516 24539.06876
614.5519 24471.26051
614.7521 24705.46622
614.9522 24667.86551
615.1524 24708.76345
615.3526 25031.70764
615.5527 25380.31288
615.7528 25110.34964
615.9529 25218.37999
616.1530 25541.65186
616.3531 25849.93260
616.5532 25998.36937
616.7532 25668.72832
616.9532 25809.40329
617.1533 25764.18414
617.3533 25986.79835
617.5532 25971.45906
617.7532 26140.94895
617.9532 25994.53967
618.1531 26586.13640
618.3530 26160.28178
618.5530 26521.17483
618.7528 26748.02833
618.9527 26849.05463
619.1526 26753.78312
619.3524 26752.14475
619.5523 26869.53432
619.7521 26958.60048
619.9519 27161.92282
620.1517 27301.04133
620.3515 27497.33914
620.5512 27590.00972
620.7510 27604.34550
620.9507 27568.19886
621.1504 27498.89559
621.3501 27798.22671
621.5498 28077.40581
621.7495 28084.38938
621.9492 28121.31426
622.1488 27895.71002
622.3484 27991.26824
622.5480 28028.45935
622.7476 28691.38684
622.9472 28284.02537
623.1468 28330.35043
623.3463 29176.03864
623.5459 29201.37202
623.7454 28957.58182
623.9449 29143.04587
624.1444 29311.71657
624.3439 29580.06192
624.5433 29385.79160
624.7428 29549.36287
624.9422 29439.50982
625.1416 29569.22816
625.3410 29581.20878
625.5404 29872.83953
625.7398 29781.09053
625.9391 29962.09001
626.1385 29617.58070
626.3378 29725.75441
626.5371 30351.81846
626.7364 29894.79375
626.9357 30107.31147
627.1350 30162.58615
627.3342 30221.21949
627.5335 30158.10110
627.7327 30372.29815
627.9319 30384.46308
628.1311 31108.93203
628.3303 30531.01573
628.5294 30602.05976
628.7286 30967.51979
628.9277 31340.94641
629.1268 31252.74039
629.3259 31665.63137
629.5250 31661.00296
629.7241 31626.08510
629.9231 31058.51104
630.1222 31728.15586
630.3212 31772.12575
630.5202 31472.79464
630.7192 31746.60806
630.9182 31614.45263
631.1171 31733.64442
631.3161 31725.88261
631.5150 31419.05594
631.7140 31793.44510
631.9129 32118.47822
632.1118 32316.98783
632.3106 32255.13918
632.5095 32358.39776
632.7083 32075.59376
632.9072 32168.46914
633.1060 32341.58394
633.3048 32034.22479
633.5036 32122.67656
633.7023 32443.20415
633.9011 32832.19533
634.0998 33127.61482
634.2986 32756.74816
634.4973 33132.75523
634.6960 32875.34603
634.8947 32946.59487
635.0933 32979.73100
635.2920 33095.29788
635.4906 32853.53517
635.6892 33189.81164
635.8878 33406.95776
636.0864 33643.53911
636.2850 33281.00768
636.4836 33451.82876
636.6821 33339.39527
636.8806 33640.32380
637.0792 33767.25690
637.2777 33803.42403
637.4761 33708.82836
637.6746 33859.53838
637.8731 34294.48598
638.0715 33902.79148
638.2699 34182.03202
638.4683 34077.83137
638.6667 33934.55547
638.8651 34082.62361
639.0635 34335.22008
639.2618 34253.58804
639.4602 34377.18296
639.6585 34177.42409
639.8568 34470.36554
640.0551 34285.47492
640.2534 34232.65780
640.4516 34512.38985
640.6499 34624.59806
640.8481 35071.64916
641.0463 35028.96949
641.2445 35295.53310
641.4427 34976.50053
641.6409 35022.14976
641.8390 35009.86194
642.0372 35314.47682
642.2353 35156.02547
642.4334 35123.11462
642.6315 35346.65040
642.8296 35249.28997
643.0277 34997.20550
643.2257 35818.89152
643.4237 35644.83465
643.6218 35468.79126
643.8198 35512.74067
644.0178 35650.99904
644.2157 35446.73464
644.4137 35562.30151
644.6116 36387.14141
644.8096 36549.75013
645.0075 35824.99447
645.2054 36248.33009
645.4033 36060.83855
645.6011 35959.25930
645.7990 35998.33454
645.9968 36268.78929
646.1947 36260.84318
646.3925 36574.16191
646.5903 36241.79707
646.7881 36538.89589
646.9858 36217.91775
647.1836 36222.81240
647.3813 36034.89078
647.5790 36172.06373
647.7767 37084.96628
647.9744 36432.64727
648.1721 36548.95142
648.3698 37012.42723
648.5674 36522.65550
648.7650 36856.94544
648.9627 36542.66415
649.1603 37450.73350
649.3578 37229.06136
649.5554 37351.36605
649.7530 37509.63308
649.9505 36986.52042
650.1480 37358.77970
650.3455 37522.74008
650.5430 36927.49796
650.7405 37194.71693
650.9380 37353.43450
651.1354 37656.14476
651.3329 37504.34932
651.5303 37977.69634
651.7277 37914.33218
651.9251 37958.01536
652.1225 37584.79353
652.3198 37611.82672
652.5172 37926.02609
652.7145 38196.03029
652.9118 38177.70097
653.1091 38279.01398
653.3064 38241.86383
653.5037 38194.74007
653.7009 37794.19834
653.8982 38205.75814
654.0954 38701.16178
654.2926 38653.38267
654.4898 38570.58329
654.6870 38645.78470
654.8841 39053.45336
655.0813 38706.77321
655.2784 39129.65828
655.4755 38993.30452
655.6726 39185.64975
655.8697 38730.75493
656.0668 39167.73002
656.2639 39072.54043
656.4609 38958.61193
656.6579 39245.22516
656.8550 39316.28967
657.0520 39121.13873
657.2490 38569.41595
657.4459 39441.93255
657.6429 39556.86456
657.8398 39274.73639
658.0367 39699.68990
658.2337 39441.83016
658.4305 39668.90893
658.6274 39842.02373
658.8243 39765.85977
659.0211 39818.28777
659.2180 39772.82287
659.4148 39957.57013
659.6116 40108.13679
659.8084 40200.39778
660.0052 40276.29550
660.2019 40179.44706
660.3987 40025.13262
660.5954 40282.02982
660.7921 40377.32180
660.9888 40027.30346
661.1855 40390.73600
661.3822 40413.65277
661.5788 40421.37361
661.7755 40317.33680
661.9721 40267.55068
662.1687 40645.52379
662.3653 40341.74858
662.5619 40658.09832
662.7584 40383.62955
662.9550 40524.77555
663.1515 40713.25012
663.3480 40634.79243
663.5445 41130.66711
663.7410 40677.55402
663.9375 40989.25486
664.1340 40966.89105
664.3304 41136.40142
664.5268 40938.36284
664.7233 41438.08770
664.9197 41128.59866
665.1160 41340.35863
665.3124 41146.55934
665.5088 41389.53036
665.7051 41280.86513
665.9014 41078.52582
666.0977 41061.75296
666.2940 41031.48398
666.4903 41319.14167
666.6866 41501.98432
666.8828 41035.23176
667.0791 41356.20990
667.2753 41778.76730
667.4715 41770.08391
667.6677 42169.06918
667.8639 42156.96569
668.0600 41534.26031
668.2562 41687.40741
668.4523 41649.41759
668.6484 42021.43111
668.8445 41457.44100
669.0406 42301.42940
669.2367 42222.86932
669.4327 42493.48791
669.6287 42360.08323
669.8248 42140.13138
670.0208 42145.37418
670.2168 41997.16268
670.4128 42208.73834
670.6087 42148.11846
670.8047 42197.47451
671.0006 42504.34215
671.1965 41787.10253
671.3924 42202.92210
671.5883 41961.52803
671.7842 42372.33008
671.9801 41656.36020
672.1759 42188.99592
672.3717 41930.25555
672.5675 43055.81917
672.7633 42451.23832
672.9591 43043.83855
673.1549 43122.25528
673.3506 42948.32129
673.5464 42618.94648
673.7421 42879.42762
673.9378 43016.51865
674.1335 42517.16243
674.3292 42836.37932
674.5249 42504.13735
674.7205 41858.72000
674.9161 42379.31365
675.1118 42121.31055
675.3074 42037.97870
675.5030 42100.27791
675.6985 42564.18379
675.8941 42614.42047
676.0896 42644.25937
676.2852 42601.96882
676.4807 42346.46423
676.6762 42512.30874
676.8717 42945.20838
677.0671 43078.30587
677.2626 43220.49634
677.4580 42987.47845
677.6534 43000.19634
677.8489 42627.73226
678.0442 42737.79010
678.2396 42284.88181
678.4350 42655.62560
678.6303 42335.77384
678.8257 42637.50107
679.0210 42957.78291
679.2163 42742.80763
679.4116 42869.02394
679.6069 42568.58693
679.8021 41963.43264
679.9974 42405.32286
680.1926 42514.04952
680.3878 42393.73135
680.5830 42530.65854
680.7782 42500.59436
680.9734 42214.37025
681.1685 42332.21037
681.3636 42219.57209
681.5588 42641.86325
681.7539 42417.81547
681.9490 42307.04084
682.1441 42271.13994
682.3391 41953.88910
682.5342 42609.97637
682.7292 42810.24724
682.9242 43000.01202
683.1192 42816.71882
683.3142 43023.39982
683.5092 43128.74734
683.7041 43479.38007
683.8991 43049.98246
684.0940 42884.77282
684.2889 42419.22856
684.4838 42808.69078
684.6787 42647.33132
684.8736 42121.22863
685.0684 42591.33986
685.2633 42494.92149
685.4581 42719.99325
685.6529 43160.83901
685.8477 43398.83346
686.0425 43170.17775
686.2372 42971.99581
686.4320 42566.12936
686.6267 42622.77618
686.8214 42780.26497
687.0161 42544.25706
687.2108 42900.27594
687.4055 42889.81082
687.6002 42866.23870
687.7948 42876.13039
687.9894 42985.98344
688.1841 43009.10500
688.3787 43029.83045
688.5732 42897.40879
688.7678 42872.54645
688.9624 42623.04241
689.1569 42888.47964
689.3514 42323.87514
689.5459 41963.26880
689.7404 42579.21588
689.9349 42300.36446
690.1294 42480.25803
690.3238 42400.26437
690.5182 42396.92618
690.7127 42531.66205
690.9071 42614.74814
691.1015 42369.77012
691.2958 42753.66186
691.4902 42484.80452
691.6845 43314.33427
691.8789 42646.55310
692.0732 42638.91417
692.2675 42368.25462
692.4618 42869.69977
692.6560 42630.47654
692.8503 43202.26942
693.0445 42981.43695
693.2387 42271.07850
693.4329 42860.32007
693.6271 42743.34010
693.8213 42776.10760
694.0155 42846.14813
694.2096 42708.74991
694.4038 42276.66946
694.5979 42344.45722
694.7920 42359.42788
694.9861 42296.10468
695.1801 42448.61692
695.3742 42144.26828
695.5682 42199.09240
695.7623 42414.68207
695.9563 42233.29348
696.1503 42412.20403
696.3443 41730.31236
696.5382 42468.70749
696.7322 42274.62149
696.9261 42557.26166
697.1201 41961.38467
697.3140 42188.64776
697.5079 42490.88699
697.7017 41992.69811
697.8956 41771.06693
698.0894 42013.93555
698.2833 42285.16853
698.4771 42381.05443
698.6709 42717.14658
698.8647 42439.05290
699.0585 42923.23367
699.2522 42045.88386
699.4460 42067.61281
699.6397 42376.11882
699.8334 41794.84385
700.0271 42348.67604
700.2208 42575.22234
700.4144 42699.12445
700.6081 42658.26748
700.8017 42204.62192
700.9954 42504.07591
701.1890 42021.43111
701.3826 41922.82142
701.5761 41918.78692
701.7697 41859.37535
701.9632 41568.11323
702.1568 42092.94618
702.3503 41977.60458
702.5438 41890.93455
702.7373 41052.08655
702.9308 41857.88033
703.1242 41833.73478
703.3177 41557.03372
703.5111 41666.16997
703.7045 41838.01503
703.8979 42147.42215
704.0913 42385.74428
704.2847 42438.64331
704.4780 42294.58919
704.6713 41671.92477
704.8647 41838.60894
705.0580 41787.24589
705.2513 41684.66313
705.4445 41779.75032
705.6378 41714.85019
705.8311 40999.02368
706.0243 41098.12488
706.2175 41563.44386
706.4107 41498.60517
706.6039 41854.72646
706.7971 41750.07525
706.9902 41719.21237
707.1834 41775.67486
707.3765 41277.75222
707.5696 41086.22618
707.7627 41385.57778
707.9558 41416.68642
708.1489 41010.51278
708.3419 40821.25999
708.5349 40910.94054
708.7280 40762.17609
708.9210 41411.19787
709.1140 41461.72125
709.3069 41035.43656
709.4999 40766.70210
709.6929 41285.02251
709.8858 40705.79551
710.0787 40928.04108
710.2716 40400.97584
710.4645 40882.24850
710.6574 40805.85926
710.8502 41087.10681
711.0431 40252.96914
711.2359 40315.82130
711.4287 40246.29276
711.6215 40480.10935
711.8143 40277.01229
712.0071 40245.73981
712.1998 40490.22632
712.3925 40302.26375
712.5853 40785.05190
712.7780 40632.21199
712.9707 40431.18338
713.1633 40389.89633
713.3560 40749.41724
713.5487 40495.61248
713.7413 40783.82312
713.9339 40757.87535
714.1265 40417.21623
714.3191 40480.51895
714.5117 40047.35308
714.7042 40554.47110
714.8968 40755.90930
715.0893 41326.45292
715.2818 41087.98744
715.4743 41076.88745
715.6668 40519.92187
715.8592 40558.25984
716.0517 40551.27627
716.2441 40778.06833
716.4366 40310.25083
716.6290 40519.88091
716.8214 40662.80865
717.0137 40759.59565
717.2061 40678.92616
717.3984 40570.40430
717.5908 40219.05478
717.7831 40037.37947
717.9754 40509.98922
718.1677 39480.33197
718.3600 39822.01508
718.5522 39781.60865
718.7445 39910.85596
718.9367 39758.73284
719.1289 40108.50542
719.3211 39731.86349
719.5133 39680.09084
719.7054 39648.18349
719.8976 39888.71742
720.0897 39889.96668
720.2818 39938.62642
720.4740 39986.34409
720.6660 39724.38840
720.8581 39705.97717
721.0502 39570.81123
721.2422 39517.27733
721.4343 39839.44329
721.6263 39991.64833
721.8183 40035.96637
722.0103 40049.11433
722.2022 39702.59802
722.3942 40119.87165
722.5861 39527.02566
722.7781 39959.96625
722.9700 40183.54300
723.1619 39955.03065
723.3538 39495.22070
723.5456 39369.45494
723.7375 39558.15478
723.9293 39500.15631
724.1211 39171.66212
724.3129 38968.07355
724.5047 38888.48948
724.6965 39241.43641
724.8883 39182.74163
725.0800 39435.44049
725.2718 39103.40332
725.4635 39145.28428
725.6552 38775.66688
725.8469 39300.25408
726.0385 39663.11318
726.2302 39221.75543
726.4218 38580.84361
726.6135 38708.73926
726.8051 38609.28990
726.9967 38779.84474
727.1882 39094.31034
727.3798 39477.03474
727.5714 39183.90897
727.7629 39202.89364
727.9544 39175.57374
728.1459 38803.74453
728.3374 38810.81003
728.5289 39390.28278
728.7204 38878.47491
728.9118 39393.10898
729.1032 39610.56230
729.2946 39612.18020
729.4860 38597.75984
729.6774 38861.84541
729.8688 38943.33408
730.0602 38711.79074
730.2515 38567.59326
730.4428 38793.17701
730.6341 38525.71230
730.8254 38308.52521
731.0167 39030.88475
731.2080 38692.00736
731.3992 38787.21743
731.5905 38994.26707
731.7817 38643.71625
731.9729 38237.25590
732.1641 38569.96890
732.3553 38237.64501
732.5464 38759.81560
732.7376 38777.79677
732.9287 38778.51356
733.1198 38806.81649
733.3109 38704.00845
733.5020 38618.15760
733.6931 38769.54345
733.8841 38324.45841
734.0752 38712.48705
734.2662 38475.70090
734.4572 38310.71654
734.6482 38014.94889
734.8392 38093.16082
735.0302 38032.70478
735.2211 38147.57535
735.4120 37877.07963
735.6030 38192.52826
735.7939 38084.23167
735.9848 38005.63063
736.1756 37831.12321
736.3665 37619.48612
736.5574 37402.03280
736.7482 38001.94429
736.9390 37699.17259
737.1298 38018.98339
737.3206 37907.22573
737.5114 38063.42431
737.7021 37760.16110
737.8929 37829.77155
738.0836 37732.61592
738.2743 37967.57937
738.4650 37787.99299
738.6557 37346.51237
738.8463 37393.02174
739.0370 37473.89603
739.2276 37189.20789
739.4182 36931.81918
739.6088 37417.63832
739.7994 36973.00383
739.9900 37206.45179
740.1806 37287.91998
740.3711 37452.88387
740.5617 37597.59334
740.7522 37359.16882
740.9427 37163.34204
741.1332 37253.20691
741.3236 37252.42868
741.5141 37388.27045
741.7045 37653.27761
741.8949 37522.24857
742.0854 37009.60103
742.2758 37689.05562
742.4661 37129.26384
742.6565 36746.74424
742.8469 36897.43378
743.0372 36833.12756
743.2275 36371.59733
743.4178 36575.59549
743.6081 36757.10696
743.7984 36558.65879
743.9886 36680.77917
744.1789 36660.89339
744.3691 36610.16520
744.5593 36603.03827
744.7495 36202.68086
744.9397 36285.29592
745.1299 36169.95432
745.3200 35903.53407
745.5102 36180.60376
745.7003 36209.09100
745.8904 36158.28090
746.0805 36436.90705
746.2706 36294.73706
746.4607 36572.42114
746.6507 36704.63800
746.8408 36323.51102
747.0308 36662.73656
747.2208 36122.50289
747.4108 36231.90538
747.6007 35995.56978
747.7907 36382.51300
747.9806 36229.89837
748.1706 36099.89331
748.3605 36264.61144
748.5504 36012.28121
748.7403 36366.21117
748.9302 35938.84105
749.1200 35943.53090
749.3098 36071.07839
749.4997 35754.93345
749.6895 35640.92303
749.8793 35708.44456
750.0691 36304.03484
750.2588 36114.31101
750.4486 35746.59822
750.6383 35616.69556
750.8280 35104.02755
751.0177 35051.74290
751.2074 35130.63066
751.3971 35059.54567
751.5868 35216.89110
751.7764 34878.68955
751.9660 34671.00503
752.1557 34989.93521
752.3453 35560.74506
752.5348 35524.25025
752.7244 35517.67627
752.9140 35507.70267
753.1035 35683.72558
753.2930 35347.98158
753.4825 35196.04278
753.6720 34932.46920
753.8615 35011.58224
754.0510 34826.71210
754.2404 34946.12916
754.4299 35188.97729
754.6193 35159.93709
754.8087 34956.71715
754.9981 35062.16707
755.1875 34723.18728
755.3768 34462.91093
755.5662 34717.76016
755.7555 34756.93780
755.9448 35143.36903
756.1341 34815.14107
756.3234 34367.51655
756.5127 34581.91839
756.7019 34725.80868
756.8912 34847.31466
757.0804 34748.72545
757.2696 34504.34134
757.4588 34135.37929
757.6480 33964.49677
757.8371 33946.57705
758.0263 33851.42842
758.2154 33490.51489
758.4045 33321.12739
758.5936 33191.65481
758.7827 33740.46947
758.9718 33894.04665
759.1609 33790.11224
759.3499 33631.88617
759.5389 33036.88981
759.7280 33180.88249
759.9170 33476.69110
760.1059 33613.59781
760.2949 33506.40712
760.4839 33437.90257
760.6728 33525.28940
760.8617 33445.68485
761.0506 33030.21343
761.2395 32989.82749
761.4284 32877.47592
761.6173 32920.52423
761.8061 32956.79375
761.9950 32928.14267
762.1838 32746.11921
762.3726 32980.32491
762.5614 32474.04656
762.7502 33150.51112
762.9389 32828.69331
763.1277 32596.22837
763.3164 32924.10817
763.5051 32876.16522
763.6938 33018.25329
763.8825 32865.20859
764.0712 33227.57618
764.2598 32802.60218
764.4484 33174.08324
764.6371 33217.39778
764.8257 32912.27091
765.0143 33161.69303
765.2029 32790.21197
765.3914 33165.39985
765.5800 33338.02313
765.7685 32959.41515
765.9570 32710.87366
766.1455 32407.20086
766.3340 32346.04851
766.5225 32459.87461
766.7110 32394.19626
766.8994 32183.19404
767.0878 31974.15787
767.2762 32215.92058
767.4646 31994.35084
767.6530 32070.92439
767.8414 32234.72093
768.0298 31959.08482
768.2181 32150.22174
768.4064 32111.24889
768.5947 32027.81465
768.7830 31712.46842
768.9713 31831.63972
769.1596 31477.75072
769.3478 31446.90831
769.5360 31596.04140
769.7243 31374.10302
769.9125 31111.43055
770.1007 30951.32035
770.2888 30897.41782
770.4770 30754.49008
770.6651 30743.75872
770.8533 30635.03206
771.0414 30541.64468
771.2295 30566.52750
771.4176 30864.83463
771.6056 31061.54203
771.7937 30675.49992
771.9817 30341.76293
772.1698 30768.21147
772.3578 30581.80535
772.5458 30488.06982
772.7337 30322.92162
772.9217 30502.13937
773.1096 30289.23254
773.2976 30575.94816
773.4855 30748.81720
773.6734 30439.30769
773.8613 30561.53046
774.0492 30243.54235
774.2370 30161.31641
774.4249 30597.55423
774.6127 30846.34148
774.8005 30662.90491
774.9883 30565.01201
775.1761 30554.07585
775.3639 30081.38419
775.5516 30323.06498
775.7394 29913.47123
775.9271 29794.91432
776.1148 29738.06271
776.3025 29062.45830
776.4902 29366.15158
776.6778 29192.13568
776.8655 29413.09103
777.0531 29925.32897
777.2407 29797.16708
777.4283 29314.87044
777.6159 29628.35302
777.8035 29529.53853
777.9911 29042.77732
778.1786 29419.00965
778.3661 29315.25956
778.5536 29307.66159
778.7411 29630.72866
778.9286 29811.27759
779.1161 29612.07167
779.3036 29091.55993
779.4910 29157.44309
779.6784 29101.04203
779.8658 29370.08368
780.0532 29151.40158
780.2406 29261.56182
780.4280 28662.81767
780.6153 28991.74193
780.8026 29061.33191
780.9900 28978.18438
781.1773 28615.57103
781.3646 28860.15994
781.5518 28572.58417
781.7391 28845.43505
781.9263 28439.73244
782.1136 28308.35524
782.3008 28081.31743
782.4880 28150.14966
782.6752 28105.56538
782.8623 28138.08712
783.0495 28353.92255
783.2366 27932.43010
783.4237 27990.40809
783.6108 28382.61459
783.7979 28111.15633
783.9850 28118.61094
784.1721 28423.81972
784.3591 27971.91494
784.5462 27977.34205
784.7332 28133.23343
784.9202 28183.65443
785.1072 27983.73172
785.2941 28019.61213
785.4811 27742.91107
785.6681 27806.52098
785.8550 27853.50138
786.0419 27763.61603
786.2288 27545.89648
786.4157 27275.66700
786.6025 27390.45565
786.7894 27495.33213
786.9762 27363.99589
787.1631 27028.84581
787.3499 27387.75233
787.5367 27365.85954
787.7234 26991.61373
787.9102 27026.32680
788.0970 27012.50302
788.2837 27195.18183
788.4704 26756.50692
788.6571 26605.63306
788.8438 26712.25032
789.0305 26448.61530
789.2171 26384.88251
789.4038 26155.87865
789.5904 26189.58821
789.7770 26279.41212
789.9636 26198.86551
790.1502 26475.32081
790.3368 26482.20199
790.5233 26368.02773
790.7099 26302.12410
790.8964 25967.75224
791.0829 25677.00211
791.2694 25702.37645
791.4559 25679.60303
791.6423 25625.72098
791.8288 25658.34512
792.0152 25862.50712
792.2016 25813.37635
792.3880 25884.05175
792.5744 25637.25104
792.7608 25279.51186
792.9471 25563.97472
793.1335 25886.52980
793.3198 25524.14173
793.5061 25589.98392
793.6924 25169.22874
793.8787 25230.48349
794.0650 25212.85048
794.2512 25370.66695
794.4375 25581.60773
794.6237 25695.08568
794.8099 25571.71604
794.9961 25110.08340
795.1823 25014.87334
795.3684 25065.97016
795.5546 24800.53293
795.7407 24894.98525
795.9268 24508.79978
796.1129 24693.89520
796.2990 25125.11550
796.4851 25413.94053
796.6712 25179.01803
796.8572 24831.94877
797.0432 24555.10435
797.2292 24858.98196
797.4152 24873.35870
797.6012 24354.73109
797.7872 24300.66472
797.9731 24433.31165
798.1591 24231.03378
798.3450 24106.14864
798.5309 24370.66429
798.7168 24458.09207
798.9027 24482.31954
799.0885 24437.83766
799.2744 24306.09183
799.4602 24612.57036
799.6460 24561.71929
799.8318 24878.31478
800.0176 24493.27618
800.2034 24450.63747
800.3892 23968.09507
800.5749 23908.43774
800.7606 23981.18159
800.9463 24078.31675
801.1320 23963.05707
801.3177 24028.53063
801.5034 24018.24983
801.6890 24031.15203
801.8747 23671.87687
802.0603 23308.19858
802.2459 23298.30689
802.4315 23356.94024
802.6171 23150.11587
802.8026 23452.37558
802.9882 23469.25084
803.1737 23071.59675
803.3592 23364.98875
803.5447 23498.08624
803.7302 23503.37000
803.9157 23448.34108
804.1012 23467.48959
804.2866 23006.24607
804.4720 23087.71426
804.6574 22867.20947
804.8428 22748.73448
805.0282 22689.83490
805.2136 22755.28798
805.3989 23039.13645
805.5843 22697.98581
805.7696 22591.06136
805.9549 22545.61694
806.1402 22498.82085
806.3255 22382.39383
806.5107 22515.40940
806.6960 22784.59441
806.8812 22427.26482
807.0664 22554.73040
807.2516 22184.51909
807.4368 21966.51281
807.6220 21909.35400
807.8072 21918.20123
807.9923 22033.66571
808.1774 22025.20760
808.3625 22296.72729
808.5476 22240.14192
808.7327 22268.09669
808.9178 21903.86545
809.1028 21847.11623
809.2879 21725.67169
809.4729 21643.34334
809.6579 21527.26448
809.8429 21800.66830
810.0279 21730.52537
810.2128 21675.92653
810.3978 21637.11752
810.5827 21682.17283
810.7676 21881.44019
810.9525 21949.45323
811.1374 21648.17655
811.3223 21555.97700
811.5072 21205.54906
811.6920 21222.17857
811.8768 21455.09406
812.0616 21097.12960
812.2464 21347.47330
812.4312 21263.24034
812.6160 21190.88561
812.8007 21251.25973
812.9855 21419.39796
813.1702 21117.17921
813.3549 21011.34019
813.5396 20902.94120
813.7243 20748.44244
813.9089 20989.65220
814.0936 21042.63315
814.2782 21052.66820
814.4628 21095.65506
814.6474 21074.88866
814.8320 20936.75317
815.0166 20662.01816
815.2012 20844.18498
815.3857 20615.36543
815.5702 20630.97095
815.7547 20727.55316
815.9392 20722.74043
816.1237 20468.83327
816.3082 20054.07863
816.4926 20234.07461
816.6771 20308.33395
816.8615 20103.76236
817.0459 20266.47347
817.2303 20214.53699
817.4147 20369.85494
817.5990 20422.34438
817.7834 20219.65691
817.9677 20121.14961
818.1520 20288.05906
818.3363 20061.98379
818.5206 19855.97862
818.7049 19937.40585
818.8891 19973.28627
819.0734 20012.11575
819.2576 19916.76233
819.4418 19696.60569
819.6260 19671.39519
819.8102 19719.25622
819.9944 19565.18753
820.1785 19403.93048
820.3627 19632.48379
820.5468 19654.95000
820.7309 19489.92468
820.9150 19297.55898
821.0991 19143.53125
821.2831 19358.58845
821.4672 19218.38451
821.6512 19104.27169
821.8352 19107.69180
822.0192 19427.03156
822.2032 19223.09483
822.3872 19347.11982
822.5711 19184.59302
822.7551 19128.54012
822.9390 19228.31715
823.1229 19270.50531
823.3068 19273.12671
823.4907 18880.59254
823.6745 18920.22074
823.8584 18866.15436
824.0422 18846.98537
824.2261 18840.59571
824.4099 18958.41535
824.5937 19109.55545
824.7774 18986.67732
824.9612 18960.87292
825.1449 18880.34678
825.3287 18917.98845
825.5124 18804.92010
825.6961 18946.22994
825.8798 18927.26575
826.0634 19045.59738
826.2471 18758.12401
826.4307 18833.01823
826.6144 18778.89041
826.7980 18897.11965
826.9816 18649.72502
827.1652 18821.52912
827.3487 18707.68254
827.5323 18415.99035
827.7158 18186.69977
827.8993 18500.10043
828.0828 18427.39754
828.2663 18165.25754
828.4498 18335.52566
828.6333 18654.45583
828.8167 18474.41890
829.0001 18486.27664
829.1836 18533.68711
829.3670 18517.01665
829.5504 18621.07394
829.7337 18225.24254
829.9171 18260.24233
830.1004 18335.07510
830.2837 18179.16324
830.4671 17988.04680
830.6504 17845.50818
830.8336 17944.60938
831.0169 17874.40501
831.2002 17996.75067
831.3834 18013.40065
831.5666 17906.04613
831.7498 17956.34424
831.9330 18134.96808
832.1162 18047.88845
832.2993 17864.73860
832.4825 17939.32562
832.6656 17840.18346
832.8487 17577.77722
833.0318 17529.36324
833.2149 17485.45479
833.3980 17624.53235
833.5811 17716.07655
833.7641 17662.29689
833.9471 17551.17411
834.1301 17396.75726
834.3131 17243.50776
834.4961 17350.92372
834.6791 17294.15403
834.8620 17700.51199
835.0450 17706.92213
835.2279 17804.01633
835.4108 17618.08125
835.5937 17779.29735
835.7766 17479.96623
835.9594 17529.48612
836.1423 17461.22732
836.3251 17747.47191
836.5079 17652.75336
836.6907 17396.69582
836.8735 17407.44766
837.0563 17430.52827
837.2390 17397.02350
837.4218 17210.22827
837.6045 17351.10804
837.7872 17543.94478
837.9699 17285.88023
838.1526 17067.50533
838.3352 17140.80213
838.5179 17235.13157
838.7005 17167.71244
838.8831 17242.29946
839.0658 17280.78079
839.2483 17485.70055
839.4309 17377.17868
839.6135 17352.54162
839.7960 17096.50456
839.9786 17154.21632
840.1611 16839.56640
840.3436 17078.76915
840.5261 16890.31507
840.7085 16689.28646
840.8910 16687.66856
841.0734 16773.82661
841.2559 16734.25985
841.4383 16836.96548
841.6207 17030.31421
841.8030 16752.89637
841.9854 16651.62431
842.1678 16558.44173
842.3501 16639.02930
842.5324 16595.73525
842.7147 16716.85212
842.8970 16907.14937
843.0793 16731.90469
843.2615 16710.83109
843.4438 16879.27652
843.6260 16842.35164
843.8082 16769.75115
843.9904 16780.44155
844.1726 16469.35509
844.3548 16316.20799
844.5369 16294.37664
844.7191 16369.82381
844.9012 16273.67168
845.0833 16277.74714
845.2654 16502.53219
845.4475 16728.52554
845.6296 16467.26617
845.8116 16382.11163
845.9936 16309.94121
846.1757 16130.90778
846.3577 15989.22930
846.5397 16021.40289
846.7216 16020.93186
846.9036 15970.73614
847.0855 15755.82230
847.2675 15985.21528
847.4494 16085.60671
847.6313 16252.10657
847.8132 16289.05192
847.9950 16069.42776
848.1769 15998.17892
848.3587 16180.01807
848.5406 15996.35623
848.7224 15993.36620
848.9042 16026.44089
849.0860 16125.72642
849.2677 15888.51020
849.4495 15739.47951
849.6312 15772.41085
849.8129 16011.06065
849.9946 16188.02563
850.1763 16031.74513
850.3580 15806.53001
850.5397 15615.04493
850.7213 15468.88140
850.9029 15562.45309
851.0845 15699.56460
851.2661 15681.56295
851.4477 15631.14196
851.6293 15558.25476
851.8109 15514.77638
851.9924 15529.17360
852.1739 15605.97243
852.3554 15523.56217
852.5369 15537.93891
852.7184 15272.46072
852.8999 15275.16404
853.0813 15255.23730
853.2628 15265.43618
853.4442 15407.85193
853.6256 15380.88018
853.8070 15367.50695
853.9883 15503.43063
854.1697 15306.92803
854.3510 15060.53691
854.5324 15099.67359
854.7137 15054.61828
854.8950 15128.63187
855.0763 15198.40617
855.2575 15228.42939
855.4388 15149.62355
855.6200 15218.66058
855.8013 15211.55413
855.9825 14997.15228
856.1637 14920.37393
856.3449 14978.16761
856.5260 14978.35193
856.7072 14853.24151
856.8883 15009.44009
857.0694 14949.45509
857.2505 14915.68408
857.4316 14877.22323
857.6127 14690.03888
857.7938 14793.50227
857.9748 14726.61561
858.1558 14692.96748
858.3368 14669.49776
858.5178 14628.88654
858.6988 14615.20611
858.8798 14554.95487
859.0607 14796.24654
859.2417 14715.69993
859.4226 14692.20973
859.6035 14690.42800
859.7844 14683.81306
859.9653 14567.09932
860.1462 14478.77043
860.3270 14494.84698
860.5078 14431.44187
860.6887 14493.20861
860.8695 14459.66288
861.0503 14409.67196
861.2310 14141.92053
861.4118 14125.14766
861.5925 14177.57566
861.7733 14149.86665
861.9540 13986.70498
862.1347 13873.00175
862.3154 13888.97591
862.4960 14132.72515
862.6767 14088.46854
862.8573 14130.86150
863.0380 13968.21182
863.2186 13962.82566
863.3992 13735.27585
863.5797 13797.43170
863.7603 13862.16800
863.9409 13857.99014
864.1214 13786.74131
864.3019 13714.26369
864.4824 13578.23761
864.6629 13505.57568
864.8434 13306.88175
865.0238 13361.39868
865.2043 13446.24602
865.3847 13270.73510
865.5651 13280.74967
865.7455 13396.17319
865.9259 13428.65397
866.1063 13314.45923
866.2866 13316.13857
866.4670 13210.40194
866.6473 13171.51102
866.8276 13126.47618
867.0079 13156.19221
867.1882 12957.08869
867.3684 12792.71872
867.5487 12831.91684
867.7289 12934.52007
867.9091 12940.58206
868.0893 12739.61489
868.2695 12519.21249
868.4497 12426.64430
868.6299 12442.53654
868.8100 12508.01010
868.9901 12608.74968
869.1703 12791.20322
869.3504 12781.68016
869.5304 12684.72932
869.7105 12779.34548
869.8906 12642.88932
870.0706 12528.67410
870.2506 12516.93924
870.4306 12529.98480
870.6106 12528.63315
870.7906 12683.33670
870.9706 12556.71080
871.1505 12462.29944
871.3305 12416.54782
871.5104 12391.00965
871.6903 12286.58372
871.8702 12333.99420
872.0500 12300.65326
872.2299 12308.06691
872.4097 12126.92407
872.5896 12142.75487
872.7694 12172.59378
872.9492 12213.92179
873.1290 11964.72495
873.3087 11994.72769
873.4885 12278.04369
873.6682 12206.50814
873.8480 12043.77654
874.0277 11965.33934
874.2074 11699.28772
874.3870 11744.85503
874.5667 11800.31402
874.7463 11976.62365
874.9260 11804.32804
875.1056 11762.81571
875.2852 11736.43787
875.4648 11769.55353
875.6444 11714.25837
875.8239 11835.27285
876.0035 11732.87441
876.1830 11605.36787
876.3625 11543.08914
876.5420 11578.37565
876.7215 11516.07644
876.9010 11436.57429
877.0804 11417.81490
877.2599 11243.77851
877.4393 11390.55643
877.6187 11478.76245
877.7981 11553.49282
877.9775 11439.78960
878.1568 11506.67626
878.3362 11365.79649
878.5155 11383.73670
878.6948 11200.68925
878.8741 11201.89755
879.0534 11168.51566
879.2327 11098.47513
879.4119 11105.52014
879.5912 11001.56525
879.7704 11129.48138
879.9496 11279.76132
880.1288 11276.77129
880.3080 11101.07605
880.4872 11198.14977
880.6663 11160.13947
880.8455 11125.67215
881.0246 11142.97749
881.2037 11140.97048
881.3828 11074.88253
881.5619 11070.66371
881.7409 11006.45989
881.9200 10931.13560
882.0990 11014.73369
882.2780 10937.93486
882.4570 10870.49525
882.6360 10841.94656
882.8150 10715.85313
882.9940 10738.56510
883.1729 10807.70453
883.3518 10995.66710
883.5308 10913.76883
883.7096 10869.59414
883.8885 10705.28561
884.0674 10574.13369
884.2463 10454.02032
884.4251 10552.07707
884.6039 10527.25568
884.7827 10573.99033
884.9615 10566.12613
885.1403 10544.92965
885.3191 10444.23103
885.4978 10307.61104
885.6765 10310.62155
885.8553 10420.08548
886.0340 10505.48578
886.2127 10418.48806
886.3913 10275.45793
886.5700 10162.71725
886.7486 10050.36568
886.9273 10059.52010
887.1059 10049.62841
887.2845 9960.72609
887.4630 9974.73420
887.6416 10058.08652
887.8202 10126.65252
887.9987 10121.63499
888.1772 10105.61988
888.3557 10060.81032
888.5342 9952.94381
888.7127 10051.53302
888.8912 10107.17633
889.0696 10158.02740
889.2481 9961.03328
889.4265 9824.92528
889.6049 9758.20246
889.7833 9723.79658
889.9616 9626.35423
890.1400 9647.28447
890.3183 9577.30538
890.4967 9666.92449
890.6750 9819.78488
890.8533 9663.09479
891.0316 9564.64893
891.2098 9441.11546
891.3881 9466.77651
891.5663 9426.20625
891.7445 9475.41893
891.9227 9451.15050
892.1009 9397.88284
892.2791 9489.03793
892.4573 9456.08611
892.6354 9382.70739
892.8136 9483.03738
892.9917 9455.34884
893.1698 9383.81329
893.3479 9425.28466
893.5259 9467.37042
893.7040 9302.97997
893.8820 9314.75579
894.0601 9229.23261
894.2381 9320.71537
894.4161 9393.23395
894.5941 9483.63129
894.7720 9432.30919
894.9500 9492.31468
895.1279 9548.18326
895.3058 9374.76127
895.4838 9347.40041
895.6616 9228.80254
895.8395 9114.79212
896.0174 9137.62697
896.1952 9216.12561
896.3731 9313.58844
896.5509 9311.31520
896.7287 9247.58241
896.9065 9194.68338
897.0842 9304.00395
897.2620 9231.62873
897.4397 9167.03580
897.6175 9145.85980
897.7952 9197.79629
897.9729 9286.28902
898.1506 9236.89201
898.3282 9151.45076
898.5059 9120.23971
898.6835 9079.13698
898.8611 9153.43729
899.0388 9011.34922
899.2163 8844.35784
899.3939 8830.34974
899.5715 9016.96065
899.7490 9048.35601
899.9266 8983.98835
900.1041 8987.14222
900.2816 9000.59738
900.4591 8933.23969
900.6365 8942.29171
900.8140 8827.07299
900.9914 8784.43428
901.1689 8764.67138
901.3463 8822.13738
901.5237 8883.96556
901.7011 8787.44479
901.8784 8742.55332
902.0558 8649.00210
902.2331 8737.00332
902.4104 8790.08667
902.5878 8765.06049
902.7650 8656.57959
902.9423 8602.06266
903.1196 8702.37217
903.2968 8773.49812
903.4741 8759.18282
903.6513 8704.17438
903.8285 8642.83772
904.0057 8693.01295
904.1828 8552.35846
904.3600 8428.92738
904.5371 8462.71887
904.7143 8479.88085
904.8914 8522.86771
905.0685 8608.65712
905.2456 8537.69500
905.4226 8540.11161
905.5997 8654.81834
905.7767 8702.29025
905.9537 8606.26100
906.1307 8527.16844
906.3077 8471.54561
906.4847 8478.05815
906.6617 8420.51023
906.8386 8527.25036
907.0156 8420.18256
907.1925 8355.61010
907.3694 8329.62138
907.5463 8298.43081
907.7231 8319.50441
907.9000 8384.81414
908.0768 8387.78369
908.2537 8297.03820
908.4305 8245.10171
908.6073 8296.42380
908.7841 8301.95332
908.9608 8260.83011
909.1376 8213.78827
909.3143 8243.38141
909.4910 8224.00763
909.6677 8270.76276
909.8444 8229.90578
910.0211 8169.04015
910.1978 8142.49847
910.3744 8243.72957
910.5510 8267.11737
910.7277 8281.14596
910.9043 8190.87150
911.0808 8172.21450
911.2574 8179.95582
911.4340 8120.33945
911.6105 8022.13935
911.7870 8015.44249
911.9636 8050.38084
912.1401 7967.02851
912.3165 8031.68288
912.4930 7965.30822
912.6695 7886.85053
912.8459 7838.88711
913.0223 7851.40020
913.1987 7806.69304
913.3751 7791.47663
913.5515 7803.84636
913.7279 7835.18028
913.9042 7797.35430
914.0805 7738.41376
914.2568 7728.64495
914.4331 7715.04644
914.6094 7661.86069
914.7857 7702.30807
914.9620 7727.96912
915.1382 7643.44945
915.3144 7635.19613
915.4906 7752.31947
915.6668 7740.13405
915.8430 7643.59281
916.0192 7481.78280
916.1953 7568.12516
916.3715 7571.79102
916.5476 7509.67613
916.7237 7613.30335
916.8998 7609.37125
917.0759 7497.08112
917.2519 7425.79133
917.4280 7549.71392
917.6040 7526.48995
917.7800 7531.93755
917.9560 7508.38591
918.1320 7516.53683
918.3080 7542.95562
918.4839 7495.48371
918.6599 7486.59552
918.8358 7475.53649
919.0117 7435.17103
919.1876 7378.54469
919.3635 7392.32752
919.5394 7508.54975
919.7152 7465.48096
919.8911 7392.49136
920.0669 7355.64840
920.2427 7192.15905
920.4185 7160.72273
920.5942 7175.89818
920.7700 7149.58178
920.9458 7254.56066
921.1215 7250.15753
921.2972 7222.75571
921.4729 7218.00442
921.6486 7092.42298
921.8243 6984.57694
921.9999 7013.69906
922.1756 7013.14611
922.3512 7043.02597
922.5268 6967.06681
922.7024 7071.39034
922.8780 7089.71966
923.0535 7080.17612
923.2291 7019.63817
923.4046 7067.54016
923.5801 7160.94801
923.7557 7109.07296
923.9311 7073.06967
924.1066 7001.55460
924.2821 7028.52635
924.4575 7062.54311
924.6330 7002.33283
924.8084 6922.09342
924.9838 6886.66356
925.1592 6906.13974
925.3345 6865.28276
925.5099 6790.40902
925.6852 6746.15242
925.8606 6808.41067
926.0359 6749.79780
926.2112 6751.82529
926.3864 6716.31352
926.5617 6612.97301
926.7370 6579.22249
926.9122 6545.65628
927.0874 6571.62452
927.2626 6564.31328
927.4378 6532.50832
927.6130 6538.85702
927.7882 6526.54873
927.9633 6431.93258
928.1384 6411.24809
928.3135 6385.52560
928.4886 6319.41717
928.6637 6355.23615
928.8388 6401.21304
929.0139 6376.00255
929.1889 6373.60643
929.3639 6330.82436
929.5389 6344.38191
929.7139 6332.15554
929.8889 6342.06771
930.0639 6352.96290
930.2388 6273.39931
930.4138 6223.71559
930.5887 6243.49897
930.7636 6262.36076
930.9385 6263.83530
931.1134 6196.17041
931.2882 6217.30545
931.4631 6132.88818
931.6379 6109.33654
931.8127 6033.62313
931.9875 6059.03842
932.1623 6068.11093
932.3371 6033.04970
932.5118 5981.25657
932.6866 5956.39423
932.8613 5954.30530
933.0360 5966.85935
933.2107 5931.57285
933.3854 5896.49115
933.5600 5903.39280
933.7347 5798.04529
933.9093 5809.30912
934.0839 5834.08954
934.2586 5861.79855
934.4331 5839.84433
934.6077 5808.77664
934.7823 5790.81596
934.9568 5865.95593
935.1314 5800.89196
935.3059 5785.06117
935.4804 5717.88779
935.6549 5731.40438
935.8293 5732.38741
936.0038 5705.39518
936.1782 5739.63722
936.3526 5736.31951
936.5271 5683.33856
936.7015 5612.86795
936.8758 5627.12182
937.0502 5579.21983
937.2246 5589.19343
937.3989 5699.90662
937.5732 5603.52922
937.7475 5561.05434
937.9218 5554.29605
938.0961 5507.52044
938.2703 5472.11106
938.4446 5447.71975
938.6188 5476.63707
938.7930 5506.10734
938.9672 5488.45385
939.1414 5500.65975
939.3156 5440.40850
939.4897 5406.43270
939.6639 5362.66761
939.8380 5366.70211
940.0121 5333.36118
940.1862 5342.49512
940.3603 5398.83474
940.5344 5403.70890
940.7084 5366.49731
940.8824 5313.41396
941.0565 5320.56137
941.2305 5257.19722
941.4045 5193.87403
941.5784 5148.63440
941.7524 5162.92922
941.9263 5246.15867
942.1003 5245.95387
942.2742 5242.02177
942.4481 5154.92166
942.6220 5165.65302
942.7958 5176.32293
942.9697 5190.72015
943.1435 5154.63495
943.3174 5158.73088
943.4912 5096.90271
943.6650 5063.74609
943.8387 5018.91606
944.0125 5008.65573
944.1863 5039.98965
944.3600 5052.11363
944.5337 5047.62858
944.7074 5093.13444
944.8811 5076.81213
945.0548 5042.28338
945.2284 4983.19948
945.4021 4973.90170
945.5757 4989.50722
945.7493 4940.66317
945.9229 4813.62767
946.0965 4739.61408
946.2701 4783.74780
946.4436 4800.47971
946.6172 4775.49449
946.7907 4771.50095
946.9642 4795.48267
947.1377 4778.48452
947.3112 4763.86203
947.4847 4766.83158
947.6581 4789.62547
947.8315 4793.92621
948.0050 4701.27610
948.1784 4665.23185
948.3518 4696.23810
948.5251 4683.37686
948.6985 4759.56129
948.8718 4725.09398
949.0452 4638.91545
949.2185 4643.50290
949.3918 4636.51933
949.5651 4642.08981
949.7383 4605.12397
949.9116 4581.14226
950.0848 4626.44333
950.2581 4630.27303
950.4313 4649.64681
950.6045 4690.21707
950.7776 4716.41059
950.9508 4585.68875
951.1239 4586.79465
951.2971 4501.31243
951.4702 4510.97885
951.6433 4511.06077
951.8164 4485.54307
951.9895 4481.93865
952.1625 4419.22985
952.3356 4458.22317
952.5086 4415.21583
952.6816 4439.13610
952.8546 4406.71676
953.0276 4359.04005
953.2006 4381.48578
953.3735 4395.92396
953.5465 4407.51547
953.7194 4406.18429
953.8923 4367.10904
954.0652 4373.74446
954.2381 4370.36531
954.4109 4337.39302
954.5838 4333.91147
954.7566 4331.76110
954.9294 4274.88901
955.1022 4258.48478
955.2750 4273.23015
955.4478 4259.05821
955.6206 4278.08384
955.7933 4283.40856
955.9660 4270.34252
956.1388 4297.37571
956.3115 4270.07628
956.4841 4215.84607
956.6568 4163.66383
956.8295 4171.89666
957.0021 4154.36605
957.1747 4176.01308
957.3473 4177.91769
957.5199 4142.65167
957.6925 4166.75626
957.8651 4141.40241
958.0376 4138.04374
958.2102 4120.41073
958.3827 4145.12971
958.5552 4195.59166
958.7277 4158.29815
958.9001 4125.30537
959.0726 4037.67279
959.2450 3990.67191
959.4175 3995.91471
959.5899 3977.15531
959.7623 3945.88283
959.9347 3935.04908
960.1070 3928.72085
960.2794 3962.40994
960.4517 3955.54924
960.6241 3942.13505
960.7964 3958.55976
960.9687 3971.60532
961.1409 3984.36416
961.3132 3950.87987
961.4855 3945.20700
961.6577 3919.13636
961.8299 3894.76553
962.0021 3863.59545
962.1743 3842.21465
962.3465 3797.03646
962.5186 3794.06691
962.6908 3786.42798
962.8629 3774.83648
963.0350 3741.47507
963.2071 3746.16492
963.3792 3773.89441
963.5513 3786.16175
963.7233 3832.83495
963.8954 3805.06450
964.0674 3807.99309
964.2394 3768.93833
964.4114 3745.55053
964.5834 3740.79924
964.7553 3717.61623
964.9273 3721.01586
965.0992 3712.33247
965.2711 3734.71677
965.4430 3707.82694
965.6149 3670.28768
965.7868 3673.83066
965.9587 3685.21737
966.1305 3713.23358
966.3023 3698.52916
966.4741 3698.09909
966.6459 3678.00852
966.8177 3688.80131
966.9895 3692.79485
967.1613 3684.58250
967.3330 3669.01793
967.5047 3623.92166
967.6764 3614.50101
967.8481 3626.95266
968.0198 3613.47702
968.1915 3587.20158
968.3631 3555.76526
968.5347 3556.21582
968.7064 3561.76581
968.8780 3577.18702
969.0496 3549.88759
969.2211 3522.15810
969.3927 3539.11528
969.5642 3482.75518
969.7358 3473.47788
969.9073 3457.11461
970.0788 3493.26126
970.2503 3512.16401
970.4217 3517.79592
970.5932 3504.15645
970.7646 3491.52048
970.9360 3486.60536
971.1074 3535.01934
971.2788 3541.67524
971.4502 3502.70239
971.6216 3449.45520
971.7929 3422.91353
971.9643 3431.59692
972.1356 3451.62605
972.3069 3438.99008
972.4782 3414.16870
972.6494 3419.24767
972.8207 3383.79733
972.9919 3369.83018
973.1632 3356.84606
973.3344 3359.01690
973.5056 3319.08151
973.6768 3316.21436
973.8479 3325.18446
974.0191 3371.73479
974.1902 3376.30176
974.3614 3347.81452
974.5325 3353.11875
974.7036 3314.61694
974.8746 3318.11897
975.0457 3313.75680
975.2167 3299.66677
975.3878 3274.80443
975.5588 3248.30371
975.7298 3266.34632
975.9008 3240.62383
976.0718 3226.04229
976.2427 3217.58418
976.4137 3217.46130
976.5846 3206.79139
976.7555 3205.52165
976.9264 3205.46021
977.0973 3204.80486
977.2682 3221.78252
977.4390 3245.96903
977.6098 3244.88361
977.7807 3219.57071
977.9515 3217.58418
978.1223 3240.56239
978.2930 3219.30448
978.4638 3182.15432
978.6346 3144.77889
978.8053 3112.87154
978.9760 3107.05531
979.1467 3078.09703
979.3174 3095.87340
979.4881 3078.95718
979.6587 3072.07600
979.8294 3070.74482
980.0000 3069.61844
980.1706 3072.58800
980.3412 3065.35867
980.5118 3101.60771
980.6824 3096.95882
980.8529 3109.10328
981.0235 3097.94185
981.1940 3072.52656
981.3645 3043.77307
981.5350 3057.59686
981.7055 3041.15168
981.8759 3041.37695
982.0464 3033.92235
982.2168 3009.96111
982.3872 3037.56773
982.5576 3034.39338
982.7280 3020.20095
982.8984 3028.59763
983.0687 3038.89891
983.2391 3042.15518
983.4094 3005.12790
983.5797 2977.45985
983.7500 2974.81797
983.9203 2961.77241
984.0906 2979.05726
984.2608 2937.93405
984.4311 2938.56892
984.6013 2932.11782
984.7715 2964.37333
984.9417 2983.31704
985.1119 2948.68589
985.2820 2918.06875
985.4522 2899.20696
985.6223 2917.65916
985.7924 2925.66672
985.9625 2939.67482
986.1326 2948.78828
986.3027 2926.77262
986.4727 2930.19273
986.6428 2937.15582
986.8128 2915.85695
986.9828 2887.69738
987.1528 2873.77119
987.3228 2873.77119
987.4928 2883.21232
987.6627 2888.55752
987.8327 2874.16030
988.0026 2870.71972
988.1725 2895.43870
988.3424 2866.45994
988.5123 2868.13927
988.6821 2853.84445
988.8520 2846.22601
989.0218 2818.61939
989.1916 2834.88026
989.3614 2787.85890
989.5312 2795.12919
989.7010 2791.29949
989.8707 2794.10520
990.0405 2789.43584
990.2102 2806.70021
990.3799 2797.79155
990.5496 2787.34691
990.7193 2766.76482
990.8890 2770.06205
991.0586 2756.38162
991.2283 2761.64490
991.3979 2758.22479
991.5675 2762.93512
991.7371 2753.67830
991.9067 2736.96688
992.0762 2711.77686
992.2458 2732.66614
992.4153 2752.08089
992.5848 2759.24878
992.7543 2742.82407
992.9238 2725.62113
993.0933 2717.75693
993.2627 2714.41874
993.4322 2701.14790
993.6016 2712.10454
993.7710 2689.49496
993.9404 2682.34755
994.1098 2677.43242
994.2792 2699.30473
994.4485 2689.51544
994.6179 2698.95658
994.7872 2696.88813
994.9565 2697.91211
995.1258 2703.66690
995.2951 2691.21525
995.4643 2704.58849
995.6336 2717.77741
995.8028 2712.61653
995.9720 2670.55125
996.1412 2666.37339
996.3104 2681.91748
996.4796 2693.01747
996.6487 2682.44995
996.8179 2675.34350
996.9870 2677.10475
997.1561 2637.18984
997.3252 2637.43560
997.4943 2606.04023
997.6634 2602.98876
997.8324 2615.78857
998.0014 2618.04133
998.1705 2604.68858
998.3395 2584.72088
998.5085 2553.50984
998.6774 2577.34819
998.8464 2561.41500
999.0153 2558.24064
999.1843 2561.33308
999.3532 2565.55189
999.5221 2538.68254
999.6910 2554.92293
999.8599 2565.71573
1000.0287 2583.65594
1000.1976 2594.83785
1000.3664 2604.60666
1000.5352 2593.77290
1000.7040 2591.41774
1000.8728 2574.07144
1001.0415 2547.93936
1001.2103 2522.31927
1001.3790 2534.70948
1001.5478 2511.07592
1001.7165 2513.16485
1001.8851 2514.78275
1002.0538 2518.36669
1002.2225 2510.70729
1002.3911 2521.54104
1002.5598 2501.40951
1002.7284 2492.31653
1002.8970 2476.85437
1003.0656 2478.43130
1003.2341 2443.28816
1003.4027 2459.99958
1003.5712 2425.75755
1003.7398 2428.66566
1003.9083 2441.32211
1004.0768 2421.25201
1004.2453 2411.38080
1004.4137 2450.70180
1004.5822 2441.26067
1004.7506 2445.21325
1004.9190 2423.62766
1005.0874 2421.33393
1005.2558 2415.16955
1005.4242 2415.43578
1005.5926 2418.71253
1005.7609 2415.31290
1005.9292 2399.40019
1006.0976 2414.39132
1006.2659 2414.28892
1006.4342 2447.99849
1006.6024 2405.68745
1006.7707 2419.90035
1006.9389 2399.17491
1007.1071 2391.43359
1007.2754 2403.00461
1007.4436 2384.28618
1007.6117 2391.43359
1007.7799 2384.18378
1007.9481 2388.91459
1008.1162 2382.46349
1008.2843 2364.87143
1008.4524 2368.18914
1008.6205 2355.61462
1008.7886 2378.10131
1008.9566 2373.51386
1009.1247 2350.65853
1009.2927 2342.03658
1009.4607 2343.06057
1009.6287 2329.64637
1009.7967 2341.07404
1009.9647 2325.46852
1010.1327 2299.93035
1010.3006 2288.93275
1010.4685 2287.51965
1010.6364 2296.81743
1010.8043 2297.57518
1010.9722 2289.99770
1011.1401 2271.68886
1011.3079 2268.39163
1011.4758 2271.52502
1011.6436 2269.51801
1011.8114 2273.34771
1011.9792 2268.22779
1012.1470 2278.95915
1012.3147 2281.04807
1012.4825 2286.59807
1012.6502 2294.35987
1012.8179 2291.92279
1012.9856 2268.98554
1013.1533 2269.76377
1013.3210 2240.33445
1013.4886 2245.78205
1013.6563 2239.39239
1013.8239 2239.20807
1013.9915 2244.61471
1014.1591 2232.96177
1014.3267 2245.53630
1014.4942 2255.79662
1014.6618 2241.60420
1014.8293 2253.64625
1014.9969 2241.37892
1015.1644 2251.70068
1015.3319 2248.15770
1015.4993 2240.62117
1015.6668 2213.40367
1015.8342 2212.42064
1016.0017 2203.36862
1016.1691 2216.84425
1016.3365 2205.76474
1016.5039 2204.41308
1016.6712 2214.36621
1016.8386 2206.85017
1017.0059 2197.06088
1017.1733 2213.32175
1017.3406 2197.42951
1017.5079 2201.77120
1017.6752 2167.22197
1017.8424 2183.70812
1018.0097 2176.39687
1018.1769 2177.19558
1018.3441 2172.25997
1018.5113 2166.75094
1018.6785 2161.03710
1018.8457 2166.48470
1019.0129 2157.43268
1019.1800 2165.17400
1019.3471 2171.19503
1019.5142 2160.50463
1019.6813 2150.53102
1019.8484 2149.54800
1020.0155 2139.30816
1020.1826 2152.94763
1020.3496 2142.01148
1020.5166 2120.36445
1020.6836 2125.77108
1020.8506 2125.79156
1021.0176 2115.01925
1021.1846 2130.37901
1021.3515 2112.97128
1021.5185 2113.87238
1021.6854 2103.96022
1021.8523 2119.60670
1022.0192 2125.25909
1022.1861 2113.74951
1022.3529 2103.83734
1022.5198 2115.38788
1022.6866 2102.46520
1022.8534 2110.08364
1023.0202 2090.34122
1023.1870 2089.48108
1023.3538 2089.62443
1023.5205 2089.21484
1023.6873 2079.30267
1023.8540 2086.85968
1024.0207 2073.19972
1024.1874 2073.09733
1024.3541 2077.07039
1024.5207 2073.09733
1024.6874 2057.67612
1024.8540 2065.51984
1025.0206 2045.90030
1025.1872 2064.68017
1025.3538 2047.72299
1025.5204 2050.11912
1025.6870 2043.89329
1025.8535 2028.00105
1026.0201 2036.62300
1026.1866 2048.29642
1026.3531 2034.90271
1026.5196 2040.96470
1026.6860 2045.08111
1026.8525 2038.07706
1027.0189 2013.07136
1027.1853 2027.50954
1027.3518 2018.53944
1027.5181 2027.09995
1027.6845 2024.97006
1027.8509 2019.66582
1028.0172 2002.03281
1028.1836 1999.18613
1028.3499 2002.03281
1028.5162 1993.86142
1028.6825 1987.28744
1028.8488 1999.32949
1029.0150 1984.01069
1029.1813 1978.62453
1029.3475 1970.53505
1029.5137 1976.53560
1029.6799 1978.03062
1029.8461 1969.32675
1030.0123 1965.00554
1030.1784 1967.19686
1030.3446 1974.40571
1030.5107 1976.10553
1030.6768 1962.05646
1030.8429 1964.49354
1031.0090 1955.35960
1031.1750 1963.81771
1031.3411 1955.72824
1031.5071 1965.21033
1031.6732 1949.44097
1031.8392 1956.77270
1032.0051 1945.54983
1032.1711 1953.14780
1032.3371 1934.57272
1032.5030 1940.28655
1032.6690 1930.19007
1032.8349 1942.78508
1033.0008 1928.65409
1033.1667 1937.19412
1033.3325 1912.76185
1033.4984 1923.57513
1033.6642 1921.81387
1033.8300 1939.85648
1033.9959 1919.76591
1034.1616 1932.23804
1034.3274 1932.97530
1034.4932 1922.91978
1034.6589 1910.05853
1034.8247 1918.53712
1034.9904 1906.49507
1035.1561 1909.07551
1035.3218 1905.96260
1035.4875 1903.91463
1035.6531 1894.94452
1035.8188 1908.44064
1035.9844 1888.26815
1036.1500 1889.35357
1036.3156 1882.51335
1036.4812 1890.09084
1036.6468 1880.46539
1036.8123 1875.55026
1036.9779 1862.79142
1037.1434 1881.16170
1037.3089 1881.65321
1037.4744 1878.27406
1037.6399 1876.38993
1037.8053 1877.57775
1037.9708 1870.83993
1038.1362 1881.79657
1038.3016 1873.82997
1038.4670 1864.14307
1038.6324 1862.38182
1038.7978 1843.56099
1038.9632 1861.50120
1039.1285 1872.90838
1039.2938 1844.03202
1039.4592 1855.19345
1039.6245 1837.94955
1039.7897 1852.18294
1039.9550 1839.05546
1040.1203 1851.50711
1040.2855 1845.36320
1040.4507 1850.11449
1040.6159 1841.75878
1040.7811 1839.93608
1040.9463 1835.04144
1041.1115 1841.28774
1041.2766 1823.24514
1041.4418 1818.94440
1041.6069 1809.74903
1041.7720 1821.56580
1041.9371 1799.01767
1042.1021 1807.47578
1042.2672 1804.42431
1042.4323 1804.40383
1042.5973 1804.09663
1042.7623 1800.55365
1042.9273 1798.21896
1043.0923 1803.31840
1043.2572 1788.28631
1043.4222 1785.33724
1043.5871 1777.14536
1043.7521 1796.68298
1043.9170 1796.35531
1044.0819 1785.05052
1044.2467 1783.71934
1044.4116 1781.99905
1044.5765 1774.31917
1044.7413 1779.17285
1044.9061 1773.58190
1045.0709 1762.97342
1045.2357 1759.06180
1045.4005 1753.12269
1045.5652 1751.56623
1045.7300 1751.40240
1045.8947 1745.15609
1046.0594 1745.77048
1046.2241 1750.00978
1046.3888 1750.03026
1046.5535 1742.02270
1046.7181 1754.65867
1046.8828 1729.71441
1047.0474 1740.99871
1047.2120 1717.52899
1047.3766 1735.14152
1047.5412 1716.03397
1047.7057 1718.12290
1047.8703 1719.02401
1048.0348 1725.72087
1048.1993 1721.23582
1048.3639 1736.02215
1048.5283 1717.40611
1048.6928 1717.36515
1048.8573 1700.05982
1049.0217 1701.55484
1049.1861 1695.20613
1049.3506 1707.88306
1049.5150 1694.07975
1049.6793 1710.09487
1049.8437 1697.58178
1050.0081 1705.03638
1050.1724 1678.71998
1050.3367 1687.73105
1050.5010 1681.34138
1050.6653 1694.50982
1050.8296 1677.75744
1050.9939 1685.53972
1051.1581 1670.46667
1051.3224 1677.69600
1051.4866 1668.39822
1051.6508 1675.62755
1051.8150 1673.25191
1051.9791 1668.17295
1052.1433 1657.31871
1052.3074 1651.74824
1052.4716 1654.36964
1052.6357 1653.98052
1052.7998 1638.08828
1052.9639 1655.29122
1053.1279 1646.05488
1053.2920 1647.59086
1053.4560 1636.75710
1053.6201 1660.30875
1053.7841 1634.62722
1053.9481 1639.80858
1054.1120 1638.06780
1054.2760 1632.45637
1054.4399 1633.64419
1054.6039 1631.37095
1054.7678 1620.06616
1054.9317 1626.53774
1055.0956 1628.29899
1055.2595 1625.04272
1055.4233 1612.01764
1055.5872 1613.32834
1055.7510 1600.61046
1055.9148 1605.23887
1056.0786 1600.38518
1056.2424 1620.55767
1056.4062 1596.30972
1056.5699 1601.32725
1056.7336 1603.60049
1056.8974 1587.05290
1057.0611 1582.19922
1057.2248 1584.80014
1057.3885 1590.43205
1057.5521 1581.07283
1057.7158 1576.71066
1057.8794 1582.40401
1058.0430 1577.77560
1058.2066 1575.17468
1058.3702 1571.28354
1058.5338 1586.88907
1058.6973 1570.17764
1058.8609 1573.29055
1059.0244 1565.36491
1059.1879 1575.42044
1059.3514 1552.87230
1059.5149 1570.21860
1059.6784 1558.91381
1059.8418 1559.13909
1060.0053 1553.56861
1060.1687 1553.46622
1060.3321 1535.99704
1060.4955 1546.66696
1060.6589 1545.13098
1060.8222 1551.04961
1060.9856 1545.47914
1061.1489 1540.25682
1061.3122 1529.50498
1061.4755 1540.35922
1061.6388 1536.87767
1061.8021 1550.23042
1061.9654 1523.25868
1062.1286 1534.37915
1062.2918 1522.11181
1062.4550 1522.93100
1062.6182 1521.62030
1062.7814 1531.20480
1062.9446 1524.42602
1063.1077 1525.65480
1063.2709 1505.21607
1063.4340 1513.53083
1063.5971 1498.80593
1063.7602 1511.89245
1063.9233 1496.26645
1064.0863 1506.95685
1064.2494 1503.37290
1064.4124 1501.22253
1064.5754 1490.20446
1064.7384 1492.84634
1064.9014 1495.28342
1065.0644 1486.43620
1065.2274 1475.84820
1065.3903 1490.94173
1065.5532 1481.78731
1065.7162 1489.18048
1065.8790 1481.99211
1066.0419 1488.09505
1066.2048 1482.70890
1066.3677 1471.75226
1066.5305 1473.06296
1066.6933 1469.17182
1066.8561 1462.63880
1067.0189 1467.18529
1067.1817 1463.45799
1067.3445 1455.40947
1067.5072 1458.03087
1067.6699 1457.35504
1067.8327 1445.59970
1067.9954 1459.79213
1068.1580 1452.15320
1068.3207 1450.96538
1068.4834 1432.79990
1068.6460 1451.04730
1068.8086 1436.34288
1068.9713 1442.42535
1069.1339 1432.90230
1069.2964 1431.61208
1069.4590 1425.67297
1069.6216 1443.30598
1069.7841 1424.60802
1069.9466 1429.83034
1070.1091 1426.00064
1070.2716 1430.71097
1070.4341 1424.64898
1070.5966 1438.34989
1070.7590 1420.45065
1070.9214 1430.67001
1071.0839 1423.21540
1071.2463 1427.88477
1071.4086 1416.86670
1071.5710 1416.60046
1071.7334 1408.77722
1071.8957 1420.69640
1072.0580 1398.31210
1072.2204 1408.20379
1072.3827 1399.64328
1072.5449 1400.07336
1072.7072 1390.98038
1072.8695 1396.48941
1073.0317 1389.07576
1073.1939 1399.17225
1073.3561 1384.30400
1073.5183 1396.22318
1073.6805 1379.34791
1073.8427 1392.49587
1074.0048 1380.26950
1074.1669 1395.77262
1074.3291 1379.40935
1074.4912 1381.23204
1074.6532 1369.31287
1074.8153 1372.81489
1074.9774 1366.19995
1075.1394 1378.03721
1075.3014 1369.64054
1075.4635 1379.77799
1075.6255 1362.20641
1075.7874 1381.66212
1075.9494 1346.99001
1076.1114 1371.05364
1076.2733 1364.25438
1076.4352 1367.67449
1076.5971 1349.50901
1076.7590 1364.45918
1076.9209 1343.46750
1077.0828 1356.73834
1077.2446 1347.76823
1077.4064 1356.61546
1077.5683 1336.72968
1077.7301 1340.94850
1077.8918 1337.89702
1078.0536 1343.50846
1078.2154 1340.62082
1078.3771 1349.09941
1078.5388 1332.55183
1078.7006 1339.67876
1078.8623 1333.71917
1079.0239 1339.12581
1079.1856 1333.53485
1079.3473 1333.37101
1079.5089 1324.85146
1079.6705 1330.40146
1079.8321 1318.91235
1079.9937 1331.58928
1080.1553 1314.65258
1080.3169 1321.57471
1080.4784 1317.88837
1080.6399 1324.40091
1080.8014 1314.01771
1080.9629 1321.53375
1081.1244 1320.83745
1081.2859 1313.95627
1081.4474 1297.24485
1081.6088 1309.34834
1081.7702 1300.50112
1081.9316 1311.51919
1082.0930 1309.32786
1082.2544 1308.46771
1082.4158 1304.57657
1082.5771 1315.20553
1082.7385 1294.07049
1082.8998 1305.74392
1083.0611 1291.34670
1083.2224 1304.26938
1083.3837 1299.60001
1083.5449 1297.20389
1083.7062 1285.16183
1083.8674 1286.86164
1084.0286 1288.76625
1084.1898 1291.98157
1084.3510 1287.86515
1084.5122 1282.37659
1084.6734 1275.16774
1084.8345 1291.81773
1084.9956 1281.51645
1085.1567 1280.92253
1085.3178 1281.96700
1085.4789 1285.77622
1085.6400 1280.08287
1085.8010 1280.79966
1085.9621 1276.62180
1086.1231 1274.67623
1086.2841 1262.79801
1086.4451 1277.58435
1086.6061 1265.86996
1086.7670 1279.20224
1086.9280 1265.03030
1087.0889 1266.54579
1087.2498 1268.53232
1087.4107 1270.60077
1087.5716 1268.18417
1087.7325 1263.76056
1087.8933 1253.56167
1088.0542 1284.56792
1088.2150 1260.38141
1088.3758 1274.65575
1088.5366 1258.80447
1088.6974 1261.26203
1088.8582 1259.70558
1089.0189 1265.41941
1089.1796 1261.38491
1089.3404 1272.54634
1089.5011 1260.56572
1089.6618 1263.33048
1089.8224 1258.12864
1089.9831 1268.75760
1090.1438 1257.59617
1090.3044 1272.54634
1090.4650 1253.23400
1090.6256 1257.39137
1090.7862 1250.67404
1090.9468 1268.32753
1091.1073 1250.75595
1091.2679 1247.33585
1091.4284 1258.39488
1091.5889 1264.10871
1091.7494 1255.87588
1091.9099 1254.70853
1092.0703 1250.91979
1092.2308 1260.97532
1092.3912 1252.00522
1092.5516 1258.72255
1092.7121 1251.90282
1092.8724 1257.61665
1093.0328 1243.07607
1093.1932 1256.94082
1093.3535 1248.42127
1093.5139 1264.88694
1093.6742 1255.97827
1093.8345 1257.30945
1093.9948 1247.41777
1094.1550 1253.39783
1094.3153 1249.89581
1094.4755 1259.43934
1094.6358 1251.67754
1094.7960 1255.22053
1094.9562 1243.28087
1095.1163 1261.61019
1095.2765 1253.21352
1095.4367 1250.24396
1095.5968 1250.40780
1095.7569 1261.81499
1095.9170 1247.00817
1096.0771 1258.64063
1096.2372 1254.56518
1096.3973 1256.22403
1096.5573 1242.56408
1096.7173 1256.01923
1096.8773 1247.39729
1097.0374 1251.22699
1097.1973 1242.37976
1097.3573 1257.96480
1097.5173 1247.06961
1097.6772 1259.17311
1097.8371 1249.17902
1097.9970 1255.69156
1098.1569 1246.63954
1098.3168 1250.53068
1098.4767 1245.63603
1098.6365 1257.82145
1098.7964 1254.72901
1098.9562 1255.99875
1099.1160 1244.14102
1099.2758 1258.82495
1099.4356 1247.74544
1099.5953 1262.38842
1099.7551 1250.53068
1099.9148 1252.92680
1100.0745 1248.19599
1100.2342 1256.36739
1100.3939 1242.83032
1100.5536 1263.94487
1100.7132 1245.94323
1100.8729 1253.78695
1101.0325 1255.85540
1101.1921 1250.65356
1101.3517 1249.58861
1101.5113 1259.50078
1101.6709 1253.62311
1101.8304 1254.60614
1101.9899 1243.09655
1102.1495 1261.65115
1102.3090 1246.16850
1102.4685 1254.50374
1102.6279 1249.91629
1102.7874 1257.51425
1102.9468 1245.06260
1103.1063 1256.73602
1103.2657 1247.19249
1103.4251 1252.08713
1103.5845 1245.71795
1103.7438 1256.14211
1103.9032 1245.22644
1104.0625 1249.36334
1104.2219 1246.47570
1104.3812 1254.23750
1104.5405 1250.83787
1104.6997 1256.30595
1104.8590 1254.66757
1105.0183 1251.65706
1105.1775 1241.45818
1105.3367 1259.27550
1105.4959 1252.47625
1105.6551 1254.21702
1105.8143 1238.42718
1105.9735 1255.67108
1106.1326 1245.32884
1106.2917 1248.46223
1106.4508 1244.36629
1106.6099 1251.32939
1106.7690 1238.61150
1106.9281 1253.80743
1107.0872 1248.40079
1107.2462 1253.31592
1107.4052 1248.17551
1107.5642 1242.66648
1107.7232 1251.39082
1107.8822 1249.30190
1108.0412 1251.18603
1108.2001 1257.65761
1108.3591 1252.66057
1108.5180 1261.01628
1108.6769 1247.43825
1108.8358 1254.74949
1108.9947 1247.95024
1109.1535 1251.90282
1109.3124 1247.62256
1109.4712 1252.72200
1109.6300 1245.22644
1109.7888 1251.49322
1109.9476 1244.05910
1110.1064 1259.54174
1110.2651 1255.13861
1110.4239 1258.35392
1110.5826 1247.25393
1110.7413 1256.20355
1110.9000 1242.35928
1111.0587 1252.43529
1111.2173 1245.65651
1111.3760 1254.79045
1111.5346 1253.39783
1111.6932 1251.12459
1111.8518 1245.28788
1112.0104 1248.03216
1112.1690 1254.97477
1112.3276 1253.33640
1112.4861 1240.45467
1112.6446 1249.73197
1112.8032 1254.99525
1112.9617 1250.36684
1113.1201 1250.73547
1113.2786 1260.44285
1113.4371 1238.52958
1113.5955 1252.88584
1113.7539 1246.37330
1113.9123 1254.38086
1114.0707 1247.60208
1114.2291 1256.81794
1114.3875 1250.59212
1114.5458 1259.45982
1114.7042 1241.64249
1114.8625 1243.85430
1115.0208 1246.66002
1115.1791 1257.65761
1115.3374 1247.72496
1115.4956 1259.80798
1115.6539 1247.23345
1115.8121 1255.40484
1115.9703 1248.56463
1116.1285 1249.71149
1116.2867 1246.88529
1116.4449 1251.34987
1116.6030 1247.56112
1116.7612 1258.76351
1116.9193 1241.94969
1117.0774 1251.96426
1117.2355 1247.84784
1117.3936 1257.39137
1117.5516 1250.91979
1117.7097 1253.62311
1117.8677 1241.02810
1118.0257 1245.61555
1118.1837 1249.26094
1118.3417 1259.60318
1118.4997 1253.21352
1118.6577 1250.16204
1118.8156 1250.63308
1118.9735 1246.55762
1119.1315 1250.53068
1119.2894 1257.92385
1119.4472 1245.59507
1119.6051 1257.90337
1119.7630 1243.95670
1119.9208 1258.80447
1120.0786 1246.51666
1120.2364 1253.58215
1120.3942 1251.08363
1120.5520 1248.17551
1120.7098 1252.18953
1120.8675 1260.01277
1121.0253 1245.10356
1121.1830 1253.62311
1121.3407 1252.02570
1121.4984 1260.87292
1121.6560 1256.08067
