# Averages = 100
# wavelength [µm]	intensity
446.8250 14.33578
447.0374 36746.70328
447.2498 1225.19730
447.4621 1213.29861
447.6745 1232.18088
447.8868 1238.34526
448.0992 1240.12700
448.3115 1239.16445
448.5238 1240.88475
448.7360 1237.44416
448.9483 1247.70448
449.1606 1234.41316
449.3728 1267.79505
449.5850 1236.05154
449.7972 1242.66648
450.0094 1236.85025
450.2216 1256.85890
450.4337 1252.47625
450.6459 1701.39100
450.8580 2059.23258
451.0701 2079.63035
451.2822 2103.81686
451.4943 2102.54712
451.7064 2071.84807
451.9184 2065.27409
452.1305 2124.39894
452.3425 2236.40235
452.5545 2172.36237
452.7665 2160.29984
452.9785 2281.37575
453.1905 2323.80966
453.4024 2252.41747
453.6143 2338.47312
453.8263 2330.44508
454.0382 2450.45605
454.2501 2289.56762
454.4619 2285.77888
454.6738 2423.01327
454.8856 2486.43886
455.0975 2335.66740
455.3093 2341.25835
455.5211 2421.29297
455.7329 2386.25223
455.9446 2419.77748
456.1564 2419.18357
456.3681 2479.63960
456.5798 2568.80816
456.7916 2491.72262
457.0033 2488.77354
457.2149 2450.53797
457.4266 2480.62263
457.6382 2537.67904
457.8499 2512.28423
458.0615 2635.49002
458.2731 2532.86631
458.4847 2629.24372
458.6963 2659.14406
458.9078 2673.39793
459.1194 2824.21035
459.3309 2856.81401
459.5424 2680.34054
459.7539 2582.22236
459.9654 2638.04999
460.1769 2710.85528
460.3883 2695.00400
460.5998 2557.46242
460.8112 2533.11207
461.0226 2605.40536
461.2340 2717.40877
461.4454 2658.36584
461.6567 2607.53525
461.8681 2603.02972
462.0794 2560.67773
462.2907 2669.69110
462.5020 2755.39860
462.7133 2860.33651
462.9246 2929.76265
463.1359 2768.28032
463.3471 2514.78275
463.5583 2586.03158
463.7696 2936.27520
463.9808 2798.87697
464.1919 2672.18962
464.4031 2684.14976
464.6143 2829.41219
464.8254 2670.51029
465.0365 2644.91068
465.2476 2751.22074
465.4587 2826.36071
465.6698 2637.82471
465.8809 2602.21053
466.0919 2630.20627
466.3030 2809.95648
466.5140 2772.49913
466.7250 2650.78835
466.9360 2718.69900
467.1469 2657.46473
467.3579 2554.51334
467.5688 2550.04877
467.7798 2658.98023
467.9907 2835.31034
468.2016 2658.85735
468.4125 2646.89721
468.6233 2537.08513
468.8342 2556.52035
469.0450 2824.55850
469.2559 2815.34264
469.4667 2799.63472
469.6775 2560.16573
469.8882 2615.54281
470.0990 2656.62506
470.3098 2818.49651
470.5205 2688.36858
470.7312 2823.04300
470.9419 2942.93109
471.1526 2758.88014
471.3633 2639.74980
471.5739 2691.13334
471.7846 2651.40274
471.9952 2496.57630
472.2058 2570.24174
472.4164 2549.47534
472.6270 2595.92327
472.8376 2646.13946
473.0481 2785.23750
473.2587 2831.39872
473.4692 2757.71280
473.6797 2694.96304
473.8902 2612.57325
474.1007 2537.72000
474.3111 2517.36319
474.5216 2467.55659
474.7320 2589.16497
474.9424 2737.00784
475.1528 2805.18472
475.3632 2617.52934
475.5736 2611.44687
475.7840 2561.76315
475.9943 2583.53306
476.2046 2627.40055
476.4149 2656.82986
476.6252 2746.98144
476.8355 2885.48557
477.0458 2902.15604
477.2561 2939.61338
477.4663 2812.78268
477.6765 2751.95801
477.8867 2699.98056
478.0969 2722.34438
478.3071 2738.74861
478.5173 2701.31174
478.7274 2768.81279
478.9375 2934.73922
479.1477 2922.98388
479.3578 2915.52927
479.5679 3000.68381
479.7779 2867.34057
479.9880 2807.04837
480.1980 2892.87874
480.4081 2959.02813
480.6181 2878.44056
480.8281 2777.70098
481.0381 2907.52171
481.2480 2957.92222
481.4580 2882.45458
481.6679 2871.37507
481.8778 2817.84116
482.0877 2903.40530
482.2976 2919.80953
482.5075 2972.74952
482.7174 2950.73385
482.9272 2954.64547
483.1371 2889.33575
483.3469 2918.99034
483.5567 3009.01905
483.7665 3026.18102
483.9762 3024.29689
484.1860 2988.51888
484.3957 3029.47825
484.6055 2975.49380
484.8152 3017.02660
485.0249 3063.10590
485.2346 3041.17215
485.4442 3054.01292
485.6539 3118.99497
485.8635 3116.59884
486.0732 3053.11181
486.2828 3091.94130
486.4924 3099.15015
486.7019 3079.69445
486.9115 3106.58428
487.1210 3146.76542
487.3306 3168.18718
487.5401 3212.27994
487.7496 3217.95282
487.9591 3285.33099
488.1686 3282.52527
488.3780 3236.95797
488.5875 3257.64245
488.7969 3275.39834
489.0063 3266.30536
489.2157 3309.66086
489.4251 3309.47654
489.6345 3317.01307
489.8438 3314.90366
490.0531 3301.38706
490.2625 3345.00880
490.4718 3315.68189
490.6811 3373.51652
490.8903 3416.40099
491.0996 3427.27570
491.3089 3423.20025
491.5181 3468.64467
491.7273 3474.68618
491.9365 3458.48675
492.1457 3531.06676
492.3549 3514.88781
492.5640 3530.18613
492.7732 3570.36728
492.9823 3555.04847
493.1914 3649.86943
493.4005 3638.38032
493.6096 3612.82167
493.8187 3613.55894
494.0277 3689.08803
494.2368 3682.35021
494.4458 3717.26808
494.6548 3766.64460
494.8638 3789.15178
495.0728 3735.16732
495.2817 3769.65512
495.4907 3766.03021
495.6996 3832.42536
495.9085 3833.42887
496.1174 3886.43030
496.3263 3865.72533
496.5352 3930.89170
496.7440 3943.44575
496.9529 3959.37894
497.1617 3997.92172
497.3705 3972.42450
497.5793 4047.76927
497.7881 4017.27502
497.9969 4084.42792
498.2056 4109.94561
498.4144 4143.49133
498.6231 4153.44446
498.8318 4197.90586
499.0405 4218.85658
499.2492 4169.70533
499.4578 4246.74992
499.6665 4257.95231
499.8751 4325.39192
500.0837 4352.75278
500.2923 4370.36531
500.5009 4355.94761
500.7095 4422.64995
500.9180 4418.75881
501.1266 4490.39676
501.3351 4501.00524
501.5436 4553.14652
501.7521 4532.44156
501.9606 4591.93505
502.1691 4595.86715
502.3775 4634.06177
502.5860 4672.19495
502.7944 4690.17611
503.0028 4756.98085
503.2112 4785.20186
503.4196 4775.82217
503.6279 4876.95086
503.8363 4818.60423
504.0446 4959.77072
504.2529 4946.92995
504.4612 5008.51238
504.6695 5016.92953
504.8778 5042.52914
505.0860 5066.59277
505.2943 5098.84828
505.5025 5183.59322
505.7107 5183.67514
505.9189 5251.05331
506.1271 5290.90679
506.3353 5293.54867
506.5434 5300.49128
506.7516 5395.41463
506.9597 5390.90910
507.1678 5432.23711
507.3759 5501.21270
507.5840 5490.97285
507.7920 5547.16912
508.0001 5565.08884
508.2081 5695.81069
508.4161 5655.36330
508.6241 5717.31436
508.8321 5710.08503
509.0401 5780.98571
509.2480 5845.74248
509.4560 5825.20135
509.6639 5909.45479
509.8718 5924.42544
510.0797 5971.36488
510.2876 5972.47079
510.4955 6149.16953
510.7033 6172.59829
510.9112 6251.62941
511.1190 6250.21631
511.3268 6236.51540
511.5346 6328.81735
511.7424 6348.43689
511.9501 6431.76874
512.1579 6475.94342
512.3656 6533.71662
512.5733 6530.13268
512.7810 6646.64162
512.9887 6730.26018
513.1964 6769.72454
513.4040 6773.47232
513.6117 6840.09275
513.8193 6887.40083
514.0269 6948.38933
514.2345 7019.33097
514.4421 7022.95588
514.6497 7068.72798
514.8572 7163.93805
515.0647 7193.69503
515.2723 7285.11636
515.4798 7312.64106
515.6873 7428.98616
515.8947 7383.50078
516.1022 7448.95386
516.3097 7488.29534
516.5171 7620.49172
516.7245 7631.75555
516.9319 7702.24663
517.1393 7787.27829
517.3467 7868.48025
517.5540 7894.18226
517.7614 7974.17592
517.9687 7938.56175
518.1760 8004.05579
518.3833 8080.01495
518.5906 8105.38928
518.7978 8288.62104
519.0051 8246.00281
519.2123 8407.07556
519.4196 8332.16086
519.6268 8451.78271
519.8340 8534.21346
520.0411 8633.19179
520.2483 8703.88767
520.4554 8713.22640
520.6626 8825.68037
520.8697 8868.52388
521.0768 9033.16008
521.2839 9039.05823
521.4909 9119.54340
521.6980 9312.78974
521.9050 9344.84045
522.1121 9425.57138
522.3191 9468.31248
522.5261 9552.62736
522.7331 9639.01068
522.9400 9818.08507
523.1470 9821.91477
523.3539 9879.97468
523.5608 9942.62205
523.7677 9996.74986
523.9746 10077.60367
524.1815 10152.25213
524.3884 10269.15018
524.5952 10229.46055
524.8020 10460.73766
525.0089 10384.08219
525.2157 10521.31657
525.4225 10610.58753
525.6292 10653.04192
525.8360 10743.29591
526.0427 10862.42625
526.2494 10961.97801
526.4562 11081.45651
526.6629 11067.26408
526.8695 11134.84705
527.0762 11307.18362
527.2829 11297.92680
527.4895 11570.88008
527.6961 11644.99607
527.9027 11745.36702
528.1093 11743.56480
528.3159 11808.11678
528.5224 11856.20309
528.7290 12142.93919
528.9355 12082.48315
529.1420 12342.82094
529.3485 12258.48559
529.5550 12462.85239
529.7615 12470.02028
529.9680 12664.33155
530.1744 12708.05569
530.3808 12851.35206
530.5872 12786.80009
530.7936 12955.38887
531.0000 13043.77920
531.2064 13119.39021
531.4127 13220.98994
531.6191 13358.59296
531.8254 13384.21305
532.0317 13536.37713
532.2380 13545.57251
532.4443 13780.63836
532.6505 13608.64995
532.8568 13869.17205
533.0630 14047.42725
533.2692 14052.19902
533.4754 14189.90444
533.6816 14423.18856
533.8878 14398.40813
534.0939 14625.38451
534.3001 14641.50203
534.5062 14724.81339
534.7123 14796.69710
534.9184 14818.85612
535.1245 14847.97823
535.3306 14999.13881
535.5366 15161.66561
535.7426 15301.56235
535.9487 15548.09683
536.1547 15380.69587
536.3607 15590.34643
536.5666 15591.10417
536.7726 15695.10003
536.9785 15820.96819
537.1845 16042.98848
537.3904 16009.15604
537.5963 16223.96748
537.8022 16315.10209
538.0080 16517.70764
538.2139 16593.99447
538.4197 16738.47867
538.6256 16716.64732
538.8314 16832.58283
539.0372 16918.82280
539.2430 17174.94177
539.4487 16840.20127
539.6545 17335.21580
539.8602 17262.39003
540.0659 17405.91168
540.2716 17731.33392
540.4773 17687.09779
540.6830 18018.11098
540.8887 17973.05567
541.0943 17908.62657
541.2999 17988.12872
541.5056 18077.85023
541.7112 18231.81652
541.9167 18230.56726
542.1223 18482.20118
542.3279 18520.04764
542.5334 18616.03594
542.7389 18917.39454
542.9444 19012.05165
543.1499 19139.12812
543.3554 19028.80404
543.5609 19317.60859
543.7663 19449.29298
543.9718 19276.34202
544.1772 19585.17571
544.3826 19598.71278
544.5880 20004.62019
544.7934 19995.52721
544.9987 20073.04283
545.2041 20403.48258
545.4094 20235.75394
545.6147 20431.84695
545.8200 20710.47310
546.0253 20748.23764
546.2306 20927.63970
546.4358 20817.00843
546.6411 21067.33165
546.8463 21058.27963
547.0515 21401.70351
547.2567 21366.78564
547.4619 21543.54583
547.6670 21698.65898
547.8722 21790.79709
548.0773 22168.31965
548.2824 22048.04245
548.4876 22029.18066
548.6926 22367.66893
548.8977 22539.67783
549.1028 22738.53559
549.3078 22748.14057
549.5129 22814.35140
549.7179 22866.57460
549.9229 23057.01521
550.1279 23005.32448
550.3328 23164.26734
550.5378 22983.55457
550.7427 23285.50709
550.9476 23374.08173
551.1526 23059.22702
551.3575 23534.21241
551.5623 23545.18952
551.7672 23522.96906
551.9720 23737.20707
552.1769 23729.85487
552.3817 24105.41138
552.5865 23823.99999
552.7913 23983.18860
552.9961 23977.67956
553.2008 24100.25049
553.4056 24461.51218
553.6103 24349.67261
553.8150 24641.97919
554.0197 24732.29461
554.2244 24619.57441
554.4291 24519.87929
554.6337 24860.21074
554.8384 24869.20132
555.0430 24889.25093
555.2476 24782.08073
555.4522 24769.26045
555.6568 24969.61323
555.8613 25101.35906
556.0659 25252.88827
556.2704 25101.19522
556.4750 25419.83868
556.6795 25464.11576
556.8839 25258.41778
557.0884 25538.92806
557.2929 25550.97012
557.4973 25485.82423
557.7018 25488.38419
557.9062 25566.69852
558.1106 25630.53370
558.3150 25572.45331
558.5193 25792.15940
558.7237 25791.09445
558.9280 25704.79305
559.1323 25653.02040
559.3367 25649.17022
559.5410 25779.05240
559.7452 25377.05661
559.9495 25914.97608
560.1537 25823.30900
560.3580 25829.53483
560.5622 26029.74425
560.7664 26163.68141
560.9706 26103.22537
561.1748 26337.10340
561.3789 26411.77234
561.5831 26347.40468
561.7872 26349.14546
561.9913 26493.42486
562.1954 26317.81154
562.3995 26518.98351
562.6036 26513.55639
562.8076 26256.78207
563.0117 26618.76054
563.2157 26636.74171
563.4197 26732.75048
563.6237 26727.63056
563.8277 26496.59921
564.0316 26302.30841
564.2356 26620.80851
564.4395 26724.92724
564.6434 26704.16084
564.8473 27041.99377
565.0512 26952.96856
565.2551 26971.83036
565.4590 27080.45462
565.6628 27165.01525
565.8666 27303.21218
566.0705 27224.28346
566.2743 27126.39056
566.4780 27133.74277
566.6818 27143.02006
566.8856 27412.73755
567.0893 27211.40174
567.2930 27280.23397
567.4967 27180.00638
567.7004 27395.55509
567.9041 27522.38580
568.1078 27381.42411
568.3114 27431.21023
568.5151 27555.80865
568.7187 27041.93233
568.9223 27489.10630
569.1259 27492.15778
569.3295 27818.80879
569.5330 27797.67375
569.7366 27670.76113
569.9401 27835.58166
570.1436 27830.70749
570.3471 28165.75518
570.5506 28118.24230
570.7541 27971.17767
570.9575 28154.63471
571.1609 27928.21128
571.3644 28217.22063
571.5678 28275.32151
571.7712 28480.89661
571.9746 28438.42174
572.1779 28232.45752
572.3813 28096.98439
572.5846 28520.23809
572.7879 28404.93745
572.9912 28782.35761
573.1945 28729.45858
573.3978 28518.41540
573.6010 28598.98249
573.8043 28900.81212
574.0075 28431.52008
574.2107 28617.14797
574.4139 28431.62248
574.6171 28595.60334
574.8203 28211.85495
575.0234 28519.35746
575.2266 28189.81881
575.4297 28316.54712
575.6328 28405.83855
575.8359 28479.72927
576.0390 27811.84570
576.2420 28035.44293
576.4451 27743.30018
576.6481 28032.92392
576.8512 28398.85498
577.0542 27770.29241
577.2571 28065.97814
577.4601 28051.31468
577.6631 27769.59610
577.8660 27767.89629
578.0689 27351.68760
578.2719 27492.64929
578.4748 27538.74907
578.6776 27331.10551
578.8805 27327.64445
579.0834 27075.58045
579.2862 27282.60961
579.4890 27398.21745
579.6918 27578.95069
579.8946 27084.67343
580.0974 27220.90432
580.3002 27037.81591
580.5029 26851.10260
580.7057 27113.16068
580.9084 26701.70328
581.1111 27031.99968
581.3138 26798.71556
581.5164 26646.57196
581.7191 26494.65364
581.9217 26516.01395
582.1244 26332.14732
582.3270 26237.65404
582.5296 26380.41794
582.7322 26518.86063
582.9347 26386.93048
583.1373 26087.16930
583.3398 26161.75632
583.5424 26032.01750
583.7449 25979.81477
583.9474 25894.53735
584.1498 25725.25226
584.3523 25980.57252
584.5548 25692.79195
584.7572 25723.40909
584.9596 25803.25939
585.1620 26060.89386
585.3644 25577.90091
585.5668 25552.64945
585.7691 25686.05414
585.9715 25516.89192
586.1738 25713.16924
586.3761 25488.28179
586.5784 25733.01406
586.7807 25659.51246
586.9830 25626.06913
587.1852 25502.08510
587.3875 25394.91490
587.5897 25630.45178
587.7919 25436.03811
587.9941 25290.69377
588.1963 25300.21682
588.3984 25193.45621
588.6006 24957.79645
588.8027 25394.01379
589.0048 25242.07499
589.2069 25172.62837
589.4090 25384.24498
589.6111 25480.31520
589.8131 25496.06408
590.0152 25659.53294
590.2172 25320.98323
590.4192 25700.67663
590.6212 25355.49150
590.8232 25206.74753
591.0252 25529.30261
591.2271 25541.28322
591.4291 25540.81219
591.6310 25400.46489
591.8329 25361.67637
592.0348 25541.36514
592.2367 25456.53828
592.4385 25783.16881
592.6404 25947.43639
592.8422 26074.38997
593.0440 26208.79816
593.2458 26350.14896
593.4476 26314.61670
593.6494 26438.12970
593.8512 26597.99414
594.0529 26571.61630
594.2546 26617.75704
594.4563 26554.82296
594.6580 26438.12970
594.8597 26498.03279
595.0614 26472.24886
595.2630 26760.68478
595.4647 26776.35174
595.6663 26718.02559
595.8679 26863.43137
596.0695 27149.51213
596.2711 26958.98959
596.4727 27061.53139
596.6742 27222.70653
596.8757 27428.87554
597.0773 27459.30836
597.2788 27312.81715
597.4802 27502.43858
597.6817 27631.35821
597.8832 27495.86460
598.0846 27657.30598
598.2860 27572.37671
598.4875 27426.27462
598.6889 27880.47313
598.8902 27913.73214
599.0916 28074.12906
599.2930 27917.19321
599.4943 28175.38063
599.6956 28249.74238
599.8969 28100.99841
600.0982 28023.62615
600.2995 27847.93091
600.5008 28346.77514
600.7020 28232.27320
600.9032 28445.18003
601.1045 28521.24159
601.3057 28409.01291
601.5068 28722.10637
601.7080 28899.37854
601.9092 28546.18585
602.1103 29045.35776
602.3115 28986.29434
602.5126 28988.26039
602.7137 28824.97584
602.9147 29015.74413
603.1158 29229.38823
603.3169 29396.58440
603.5179 29495.46033
603.7189 29303.99573
603.9199 29522.20680
604.1209 29328.16176
604.3219 29399.45155
604.5229 29656.77883
604.7238 29666.97771
604.9247 29720.02010
605.1257 29729.25644
605.3266 29914.00370
605.5275 29740.21307
605.7283 29886.33564
605.9292 30144.33875
606.1300 29626.40745
606.3309 29835.09547
606.5317 30155.84833
606.7325 30457.14549
606.9332 30379.69132
607.1340 30404.90181
607.3348 30371.17177
607.5355 30282.53568
607.7362 30675.21321
607.9369 30247.78165
608.1376 30576.03008
608.3383 30531.03621
608.5390 30730.83604
608.7396 30665.75159
608.9402 31012.75942
609.1409 31042.49592
609.3415 30815.84722
609.5421 30789.12123
609.7426 30917.30359
609.9432 30874.05049
610.1437 30588.33837
610.3443 31301.97356
610.5448 31075.24294
610.7453 31236.29520
610.9457 31114.70730
611.1462 31175.55245
611.3467 31079.35936
611.5471 31413.93601
611.7475 31097.99588
611.9479 31614.30928
612.1483 31157.18217
612.3487 31686.15202
612.5491 31260.85035
612.7494 31917.22433
612.9497 31469.04685
613.1501 31697.35441
613.3504 31682.77287
613.5506 32272.13732
613.7509 31910.07692
613.9512 31571.87536
614.1514 31670.01403
614.3516 32140.51437
614.5519 31891.89096
614.7521 32254.42239
614.9522 31975.34569
615.1524 31855.10944
615.3526 32214.54844
615.5527 32522.52198
615.7528 32114.01365
615.9529 32170.76287
616.1530 32417.58406
616.3531 32688.10025
616.5532 32796.04868
616.7532 32403.33020
616.9532 32413.32428
617.1533 32190.89440
617.3533 32479.43272
617.5532 32285.46960
617.7532 32414.45067
617.9532 32164.04553
618.1531 32854.29292
618.3530 32200.88849
618.5530 32466.16188
618.7528 32576.91603
618.9527 32656.86873
619.1526 32418.68996
619.3524 32362.51418
619.5523 32464.48254
619.7521 32519.85962
619.9519 32633.37853
620.1517 32668.86983
620.3515 32818.14627
620.5512 32927.58972
620.7510 32712.96259
620.9507 32508.92347
621.1504 32414.30731
621.3501 32619.57522
621.5498 32909.77239
621.7495 32774.17638
621.9492 32857.99974
622.1488 32340.45756
622.3484 32395.22024
622.5480 32325.83506
622.7476 33030.15199
622.9472 32464.89214
623.1468 32396.40806
623.3463 33376.03343
623.5459 33160.23897
623.7454 32841.75935
623.9449 32875.61227
624.1444 32923.08419
624.3439 33080.55250
624.5433 32769.05646
624.7428 32855.35786
624.9422 32608.00419
625.1416 32596.94516
625.3410 32458.11336
625.5404 32737.23102
625.7398 32520.94504
625.9391 32691.90947
626.1385 32329.00941
626.3378 32398.10788
626.5371 32917.41131
626.7364 32261.87700
626.9357 32432.65711
627.1350 32441.48385
627.3342 32379.69664
627.5335 32263.16722
627.7327 32346.31475
627.9319 32322.98838
628.1311 33018.21233
628.3303 32368.84240
628.5294 32425.67354
628.7286 32548.73598
628.9277 32717.71388
629.1268 32508.78011
629.3259 32712.12292
629.5250 32748.88396
629.7241 32621.17263
629.9231 31959.59681
630.1222 32650.52002
630.3212 32533.19190
630.5202 32181.43278
630.7192 32377.81251
630.9182 31994.57611
631.1171 32077.19117
631.3161 31945.65014
631.5150 31646.11423
631.7140 31938.15457
631.9129 32054.78640
632.1118 32031.78771
632.3106 32034.24527
632.5095 32009.54677
632.7083 31659.22123
632.9072 31790.06595
633.1060 31859.81977
633.3048 31414.09985
633.5036 31487.88817
633.7023 31590.67572
633.9011 31797.07001
634.0998 31979.87170
634.2986 31512.89386
634.4973 31689.61309
634.6960 31517.46083
634.8947 31381.76243
635.0933 31303.77578
635.2920 31280.06030
635.4906 30956.91131
635.6892 31146.20506
635.8878 31192.73491
636.0864 31277.70513
636.2850 30861.51692
636.4836 30867.76323
636.6821 30630.38317
636.8806 30788.52732
637.0792 30927.27720
637.2777 30815.51955
637.4761 30534.41535
637.6746 30416.82099
637.8731 30846.21860
638.0715 30394.86676
638.2699 30566.65038
638.4683 30454.40122
638.6667 30215.71046
638.8651 30303.91647
639.0635 30302.93345
639.2618 30154.72195
639.4602 30087.48713
639.6585 29814.63626
639.8568 30063.34158
640.0551 29832.31023
640.2534 29584.23977
640.4516 29742.93687
640.6499 29648.21832
640.8481 29895.75630
641.0463 29753.58631
641.2445 29856.64010
641.4427 29471.27382
641.6409 29471.45813
641.8390 29339.40511
642.0372 29457.04043
642.2353 29271.84262
642.4334 29064.46530
642.6315 29163.79179
642.8296 28982.11648
643.0277 28645.63522
643.2257 29116.95474
643.4237 28798.67992
643.6218 28466.23315
643.8198 28518.86595
644.0178 28466.31507
644.2157 28181.54502
644.4137 28158.42345
644.6116 28759.72755
644.8096 28759.72755
645.0075 28001.07801
645.2054 28189.12250
645.4033 27907.67016
645.6011 27713.95279
645.7990 27560.74425
645.9968 27789.05181
646.1947 27705.94523
646.3925 27756.01807
646.5903 27510.71237
646.7881 27602.35898
646.9858 27141.07449
647.1836 27024.77035
647.3813 26745.12022
647.5790 26889.85017
647.7767 27277.01866
647.9744 26698.50845
648.1721 26727.07761
648.3698 26853.90832
648.5674 26375.46186
648.7650 26527.99457
648.9627 26132.57276
649.1603 26653.08450
649.3578 26417.32234
649.5554 26325.49142
649.7530 26317.66818
649.9505 25925.66648
650.1480 25974.01902
650.3455 25911.10542
650.5430 25322.45776
650.7405 25250.63550
650.9380 25331.75554
651.1354 25423.42262
651.3329 25198.53518
651.5303 25345.51789
651.7277 25199.23148
651.9251 25033.42793
652.1225 24771.57465
652.3198 24645.84985
652.5172 24638.19045
652.7145 24726.99037
652.9118 24522.66453
653.1091 24562.53848
653.3064 24511.64646
653.5037 24369.00543
653.7009 23952.44859
653.8982 24066.39757
654.0954 24140.57500
654.2926 24109.69163
654.4898 23881.89607
654.6870 23861.90789
654.8841 23921.95433
655.0813 23636.79517
655.2784 23704.64437
655.4755 23565.46441
655.6726 23648.30475
655.8697 23174.87581
656.0668 23284.19639
656.2639 23151.22178
656.4609 23003.37891
656.6579 22931.26993
656.8550 22894.59081
657.0520 22672.22236
657.2490 22173.46005
657.4459 22455.50631
657.6429 22370.37225
657.8398 22172.37463
658.0367 22338.21914
658.2337 22109.11288
658.4305 22076.42730
658.6274 21947.54862
658.8243 21794.87255
659.0211 21804.98952
659.2180 21588.23250
659.4148 21542.89048
659.6116 21405.51273
659.8084 21344.01223
660.0052 21322.26280
660.2019 21213.26991
660.3987 21096.33089
660.5954 21131.04396
660.7921 21005.97451
660.9888 20629.02538
661.1855 20709.36720
661.3822 20649.91466
661.5788 20445.05635
661.7755 20305.40536
661.9721 20228.52461
662.1687 20404.75232
662.3653 20171.34532
662.5619 20235.61058
662.7584 19922.33280
662.9550 19938.57320
663.1515 19807.62608
663.3480 19678.44021
663.5445 19758.76154
663.7410 19371.18345
663.9375 19491.60402
664.1340 19341.89750
664.3304 19363.07350
664.5268 19273.49535
664.7233 19461.41696
664.9197 19071.79090
665.1160 18925.54545
665.3124 18851.22467
665.5088 18854.72670
665.7051 18686.89566
665.9014 18509.58252
666.0977 18432.74273
666.2940 18274.18899
666.4903 18267.36926
666.6866 18202.91968
666.8828 18018.97113
667.0791 18101.27899
667.2753 18127.69779
667.4715 18028.43274
667.6677 18077.87071
667.8639 17966.23593
668.0600 17720.72544
668.2562 17599.67001
668.4523 17479.14705
668.6484 17604.50321
668.8445 17259.01088
669.0406 17595.00064
669.2367 17456.18932
669.4327 17443.92198
669.6287 17309.20660
669.8248 17138.93848
670.0208 16941.39141
670.2168 16880.11619
670.4128 16912.63793
670.6087 16728.89417
670.8047 16670.91618
671.0006 16818.80000
671.1965 16540.72680
671.3924 16535.38161
671.5883 16432.43022
671.7842 16471.32114
671.9801 16169.94206
672.1759 16260.05269
672.3717 16109.54746
672.5675 16418.46307
672.7633 16154.68470
672.9591 16199.28945
673.1549 16128.81885
673.3506 15917.12032
673.5464 15798.07190
673.7421 15874.42017
673.9378 15951.91531
674.1335 15692.23287
674.3292 15733.54040
674.5249 15474.61571
674.7205 15270.69946
674.9161 15384.48461
675.1118 15289.82749
675.3074 15234.65521
675.5030 15220.66759
675.6985 15442.36020
675.8941 15379.58996
676.0896 15322.73835
676.2852 15245.32513
676.4807 15202.70690
676.6762 15110.85550
676.8717 15239.24266
677.0671 15327.48964
677.2626 15252.55446
677.4580 15094.45127
677.6534 15077.16642
677.8489 14947.98055
678.0442 14951.03202
678.2396 14767.34970
678.4350 14860.94188
678.6303 14723.11358
678.8257 14725.69402
679.0210 14848.12159
679.2163 14706.36120
679.4116 14716.92871
679.6069 14586.69838
679.8021 14413.93174
679.9974 14550.73605
680.1926 14514.32317
680.3878 14494.82650
680.5830 14449.36160
680.7782 14377.06830
680.9734 14400.76330
681.1685 14394.84467
681.3636 14357.08013
681.5588 14410.47067
681.7539 14317.43145
681.9490 14277.88517
682.1441 14123.07922
682.3391 14111.36483
682.5342 14298.16006
682.7292 14314.89197
682.9242 14374.63122
683.1192 14290.93073
683.3142 14310.16116
683.5092 14416.51218
683.7041 14541.09012
683.8991 14325.82812
684.0940 14292.24143
684.2889 14157.93564
684.4838 14252.94091
684.6787 14182.40887
684.8736 14068.45989
685.0684 14195.57731
685.2633 14130.88198
685.4581 14188.14318
685.6529 14424.80645
685.8477 14431.58523
686.0425 14309.81301
686.2372 14323.59584
686.4320 14183.59669
686.6267 14156.21535
686.8214 14213.33320
687.0161 14182.96182
687.2108 14276.90215
687.4055 14316.30507
687.6002 14313.31503
687.7948 14413.41975
687.9894 14361.85189
688.1841 14400.41514
688.3787 14425.64612
688.5732 14300.69955
688.7678 14292.40527
688.9624 14120.60117
689.1569 14249.88944
689.3514 14265.00345
689.5459 14180.72954
689.7404 14413.76790
689.9349 14330.43605
690.1294 14402.19688
690.3238 14333.40561
690.5182 14327.79417
690.7127 14366.27550
690.9071 14450.09887
691.1015 14384.50243
691.2958 14591.94118
691.4902 14512.41855
691.6845 14836.98064
691.8789 14695.28168
692.0732 14695.13833
692.2675 14613.52677
692.4618 14815.76369
692.6560 14724.42428
692.8503 14941.44753
693.0445 14957.95416
693.2387 14769.47959
693.4329 14903.86730
693.6271 14998.29914
693.8213 15047.90094
694.0155 15092.05515
694.2096 15060.53691
694.4038 14930.14274
694.5979 14936.22521
694.7920 15011.07847
694.9861 15021.87126
695.1801 15056.62529
695.3742 15025.39377
695.5682 15102.74555
695.7623 15115.64775
695.9563 15151.20049
696.1503 15332.58908
696.3443 15148.16949
696.5382 15423.96945
696.7322 15338.22099
696.9261 15525.67157
697.1201 15391.07907
697.3140 15509.88173
697.5079 15682.85317
697.7017 15430.46151
697.8956 15478.17918
698.0894 15595.67115
698.2833 15697.92623
698.4771 15758.52562
698.6709 16008.80788
698.8647 15963.69113
699.0585 16139.73452
699.2522 15938.70591
699.4460 15929.63341
699.6397 16020.01027
699.8334 15912.96294
700.0271 16184.17545
700.2208 16330.07274
700.4144 16395.91493
700.6081 16437.24294
700.8017 16300.37719
700.9954 16437.26342
701.1890 16393.68265
701.3826 16402.73467
701.5761 16417.99204
701.7697 16508.32794
701.9632 16444.57467
702.1568 16765.73713
702.3503 16865.51417
702.5438 16867.41878
702.7373 16528.04988
702.9308 16963.40707
703.1242 16967.74877
703.3177 17004.14117
703.5111 17090.50402
703.7045 17084.89258
703.8979 17307.58870
704.0913 17514.26971
704.2847 17523.13741
704.4780 17498.93042
704.6713 17237.20002
704.8647 17412.23991
705.0580 17446.13379
705.2513 17405.70689
705.4445 17493.85146
705.6378 17563.60528
705.8311 17353.91376
706.0243 17395.99951
706.2175 17786.93627
706.4107 17783.10657
706.6039 18082.49912
706.7971 18225.34494
706.9902 18233.18866
707.1834 18334.13304
707.3765 18180.98594
707.5696 18163.55772
707.7627 18239.47592
707.9558 18211.58259
708.1489 18118.17473
708.3419 18130.83118
708.5349 18314.88213
708.7280 18288.91389
708.9210 18619.27173
709.1140 18725.68418
709.3069 18549.55887
709.4999 18443.24881
709.6929 18682.88164
709.8858 18526.35539
710.0787 18790.91199
710.2716 18663.73313
710.4645 18866.70731
710.6574 18906.90894
710.8502 19123.70691
711.0431 18913.03237
711.2359 18958.51775
711.4287 18903.67315
711.6215 19086.14716
711.8143 19117.97260
712.0071 19060.07652
712.1998 19321.90933
712.3925 19283.20272
712.5853 19541.92261
712.7780 19622.18250
712.9707 19666.45959
713.1633 19745.85934
713.3560 19937.07818
713.5487 19802.62903
713.7413 19957.43499
713.9339 20115.35386
714.1265 20107.26438
714.3191 20129.09573
714.5117 19935.76748
714.7042 20281.19837
714.8968 20468.01408
715.0893 20863.57924
715.2818 20767.87766
715.4743 20859.93386
715.6668 20671.93033
715.8592 20647.60046
716.0517 20734.29097
716.2441 20884.38660
716.4366 20810.33205
716.6290 21137.39266
716.8214 21203.74685
717.0137 21173.25260
717.2061 21281.30343
717.3984 21322.81575
717.5908 21189.88210
717.7831 21231.08723
717.9754 21548.13328
718.1677 21178.70019
718.3600 21465.10862
718.5522 21459.00568
718.7445 21601.97438
718.9367 21534.41189
719.1289 21709.69753
719.3211 21565.11094
719.5133 21627.24631
719.7054 21696.20142
719.8976 21896.79996
720.0897 21856.12730
720.2818 22198.95727
720.4740 22337.17468
720.6660 22212.18714
720.8581 22351.05990
721.0502 22390.54474
721.2422 22463.49339
721.4343 22617.15248
721.6263 22738.57655
721.8183 22848.51151
722.0103 22875.38086
722.2022 22669.45761
722.3942 23015.25713
722.5861 22769.82855
722.7781 23076.32756
722.9700 23177.06714
723.1619 23040.83626
723.3538 22936.26698
723.5456 22875.33990
723.7375 23218.00604
723.9293 23309.42736
724.1211 23183.57968
724.3129 23023.98148
724.5047 23029.34715
724.6965 23293.96520
724.8883 23466.89568
725.0800 23693.72870
725.2718 23586.47657
725.4635 23798.99429
725.6552 23723.03513
725.8469 23962.17644
726.0385 24275.74094
726.2302 24150.30285
726.4218 23811.44594
726.6135 23998.71220
726.8051 23956.68788
726.9967 24099.34939
727.1882 24305.86656
727.3798 24678.98598
727.5714 24507.40716
727.7629 24625.73880
727.9544 24674.72621
728.1459 24572.24585
728.3374 24635.24137
728.5289 25033.36650
728.7204 24698.29833
728.9118 25073.89580
729.1032 25300.46258
729.2946 25390.18409
729.4860 24860.55889
729.6774 25011.51467
729.8688 25189.01212
730.0602 25259.13457
730.2515 25264.13161
730.4428 25408.88205
730.6341 25286.43399
730.8254 25192.61655
731.0167 25700.28752
731.2080 25500.52865
731.3992 25668.09345
731.5905 25842.27319
731.7817 25759.53525
731.9729 25529.67124
732.1641 25885.26006
732.3553 25802.93171
732.5464 26234.11105
732.7376 26286.43665
732.9287 26306.36339
733.1198 26224.09649
733.3109 26349.10450
733.5020 26374.99082
733.6931 26468.58300
733.8841 26389.83860
734.0752 26537.45618
734.2662 26444.60128
734.4572 26391.10834
734.6482 26130.79103
734.8392 26206.05388
735.0302 26215.10590
735.2211 26531.12796
735.4120 26489.67707
735.6030 26850.63157
735.7939 26856.14060
735.9848 26870.90646
736.1756 26845.12253
736.3665 26806.17016
736.5574 26648.18985
736.7482 27000.93199
736.9390 26851.12308
737.1298 27150.10604
737.3206 27137.47007
737.5114 27375.93555
737.7021 27300.87750
737.8929 27319.92360
738.0836 27225.88088
738.2743 27482.38897
738.4650 27351.54424
738.6557 27159.26046
738.8463 27172.18314
739.0370 27188.21873
739.2276 27067.61385
739.4182 27013.52700
739.6088 27383.67687
739.7994 27143.16342
739.9900 27371.96249
740.1806 27492.73121
740.3711 27724.97086
740.5617 27822.69993
740.7522 27636.62149
740.9427 27644.54713
741.1332 27736.68525
741.3236 27812.23481
741.5141 27900.97330
741.7045 28227.41952
741.8949 28369.89670
742.0854 27977.48541
742.2758 28357.81369
742.4661 28124.87772
742.6565 28089.07923
742.8469 28240.99755
743.0372 28215.90993
743.2275 27798.55438
743.4178 28073.20747
743.6081 28288.96098
743.7984 28119.96260
743.9886 28266.63812
744.1789 28234.40309
744.3691 28123.48510
744.5593 28217.54831
744.7495 28113.42958
744.9397 28291.82813
745.1299 28255.80436
745.3200 27993.45957
745.5102 28270.16062
745.7003 28341.22514
745.8904 28391.99429
746.0805 28597.79467
746.2706 28591.95795
746.4607 28916.66340
746.6507 28960.85857
746.8408 28665.66435
747.0308 28875.11011
747.2208 28552.80079
747.4108 28745.47369
747.6007 28536.62184
747.7907 29062.90885
747.9806 29044.33377
748.1706 29034.91312
748.3605 29215.17533
748.5504 29094.36565
748.7403 29271.69926
748.9302 28980.72386
749.1200 29016.23564
749.3098 29180.03218
749.4997 29009.43638
749.6895 28947.15765
749.8793 29044.45665
750.0691 29575.33111
750.2588 29553.37688
750.4486 29285.97360
750.6383 29343.97208
750.8280 28959.73218
751.0177 28887.66416
751.2074 28956.04584
751.3971 28964.99546
751.5868 29157.21781
751.7764 28859.75035
751.9660 28805.27438
752.1557 29057.07214
752.3453 29662.16498
752.5348 29613.03421
752.7244 29687.25260
752.9140 29645.43308
753.1035 29754.58981
753.2930 29660.11702
753.4825 29681.57973
753.6720 29402.05247
753.8615 29624.72812
754.0510 29570.80510
754.2404 29563.73961
754.4299 29826.35064
754.6193 29698.39355
754.8087 29642.46352
754.9981 29650.51204
755.1875 29411.39121
755.3768 29360.72446
755.5662 29697.36957
755.7555 29651.02403
755.9448 30025.22888
756.1341 29836.57000
756.3234 29488.14908
756.5127 29720.10202
756.7019 29915.15056
756.8912 29948.43006
757.0804 29911.68950
757.2696 29856.57866
757.4588 29643.34415
757.6480 29427.24249
757.8371 29428.67607
758.0263 29351.01709
758.2154 29133.25658
758.4045 28975.78826
758.5936 28928.05011
758.7827 29396.93255
758.9718 29681.00630
759.1609 29574.08185
759.3499 29385.48441
759.5389 28860.28282
759.7280 29056.58063
759.9170 29378.39843
760.1059 29483.68451
760.2949 29440.34949
760.4839 29450.52789
760.6728 29621.28753
760.8617 29533.96214
761.0506 29212.24673
761.2395 29257.83451
761.4284 29206.30762
761.6173 29189.80099
761.8061 29269.36458
761.9950 29277.16734
762.1838 29310.59019
762.3726 29580.45103
762.5614 29114.23095
762.7502 29605.76392
762.9389 29276.28671
763.1277 29234.71295
763.3164 29444.56830
763.5051 29494.33395
763.6938 29595.13497
763.8825 29528.71934
764.0712 29959.48909
764.2598 29701.46550
764.4484 30011.81469
764.6371 29994.20216
764.8257 29707.40461
765.0143 30011.56893
765.2029 29828.86964
765.3914 30186.15827
765.5800 30362.59078
765.7685 29956.45809
765.9570 29844.24989
766.1455 29620.91889
766.3340 29598.32980
766.5225 29633.49342
766.7110 29482.76292
766.8994 29496.05424
767.0878 29416.28586
767.2762 29546.98722
767.4646 29441.47587
767.6530 29583.52298
767.8414 29676.27549
768.0298 29557.30898
768.2181 29714.08099
768.4064 29677.72955
768.5947 29572.89403
768.7830 29308.25550
768.9713 29390.42001
769.1596 29158.50803
769.3478 29140.81358
769.5360 29210.89507
769.7243 28933.57962
769.9125 28752.21151
770.1007 28651.04185
770.2888 28645.06178
770.4770 28606.55997
770.6651 28669.20734
770.8533 28435.71842
771.0414 28408.43947
771.2295 28523.98587
771.4176 28857.86622
771.6056 29077.51087
771.7937 28775.23068
771.9817 28444.60660
772.1698 28872.79591
772.3578 28830.85351
772.5458 28719.66929
772.7337 28452.71656
772.9217 28543.23678
773.1096 28540.12387
773.2976 28753.68605
773.4855 28977.87719
773.6734 28672.48409
773.8613 28895.15973
774.0492 28674.18390
774.2370 28670.37468
774.4249 29089.47100
774.6127 29318.02432
774.8005 29204.79212
774.9883 29069.58523
775.1761 29182.42830
775.3639 28745.08458
775.5516 29001.30595
775.7394 28662.59240
775.9271 28571.56019
776.1148 28473.52392
776.3025 27801.74921
776.4902 28134.70797
776.6778 28067.32980
776.8655 28376.47068
777.0531 28743.42572
777.2407 28515.22057
777.4283 28146.03324
777.6159 28521.32351
777.8035 28332.07072
777.9911 27957.47676
778.1786 28440.24443
778.3661 28256.27540
778.5536 28370.92069
778.7411 28768.80006
778.9286 28930.63055
779.1161 28653.51990
779.3036 28058.42114
779.4910 28108.22774
779.6784 28093.66668
779.8658 28354.12734
780.0532 28059.79327
780.2406 28200.48873
780.4280 27723.29153
780.6153 28035.85252
780.8026 28134.87181
780.9900 28177.08045
781.1773 27884.11852
781.3646 28152.23858
781.5518 27926.77770
781.7391 28228.23870
781.9263 27864.15082
782.1136 27775.51473
782.3008 27518.55609
782.4880 27683.23326
782.6752 27711.74099
782.8623 27711.12660
783.0495 27823.19145
783.2366 27444.29675
783.4237 27568.32173
783.6108 27913.30207
783.7979 27722.96385
783.9850 27776.41584
784.1721 28021.98777
784.3591 27664.35099
784.5462 27672.44047
784.7332 27771.97175
784.9202 27789.19516
785.1072 27560.92857
785.2941 27610.50989
785.4811 27315.72527
785.6681 27412.98330
785.8550 27475.81499
786.0419 27449.47811
786.2288 27203.45562
786.4157 27031.93824
786.6025 27212.73292
786.7894 27261.08546
786.9762 27182.23867
787.1631 26829.78324
787.3499 27233.99084
787.5367 27289.96182
787.7234 26975.68054
787.9102 27059.09430
788.0970 27020.61297
788.2837 27264.60797
788.4704 26889.46105
788.6571 26802.58622
788.8438 26857.43082
789.0305 26739.32446
789.2171 26666.21198
789.4038 26438.68265
789.5904 26516.95602
789.7770 26565.00136
789.9636 26463.29924
790.1502 26763.65433
790.3368 26691.89351
790.5233 26551.42333
790.7099 26433.50129
790.8964 26073.95990
791.0829 25748.53766
791.2694 25779.17528
791.4559 25749.37733
791.6423 25705.91943
791.8288 25841.16729
792.0152 26178.40630
792.2016 26114.40728
792.3880 26242.97876
792.5744 25882.22906
792.7608 25570.34390
792.9471 25785.76973
793.1335 26147.21574
793.3198 25865.18996
793.5061 25981.41219
793.6924 25493.48363
793.8787 25577.88043
794.0650 25537.55592
794.2512 25699.63217
794.4375 25917.74084
794.6237 26081.25067
794.8099 26001.58468
794.9961 25493.19692
795.1823 25496.10503
795.3684 25656.80914
795.5546 25358.62489
795.7407 25396.53279
795.9268 24964.14515
796.1129 25126.50811
796.2990 25609.50106
796.4851 25987.47418
796.6712 25671.80027
796.8572 25299.62291
797.0432 25164.68225
797.2292 25376.66750
797.4152 25289.11683
797.6012 24769.91580
797.7872 24747.22430
797.9731 24935.76030
798.1591 24675.87307
798.3450 24658.81349
798.5309 24955.42080
798.7168 25046.73973
798.9027 25046.26870
799.0885 24948.78539
799.2744 24772.92631
799.4602 24998.77630
799.6460 24954.54018
799.8318 25312.17696
800.0176 25016.83939
800.2034 25060.11297
800.3892 24528.86987
800.5749 24448.05703
800.7606 24487.05035
800.9463 24580.62204
801.1320 24581.89178
801.3177 24638.90723
801.5034 24693.52656
801.6890 24869.91811
801.8747 24602.74011
802.0603 24227.38839
802.2459 24182.14876
802.4315 24184.31961
802.6171 23937.66225
802.8026 24274.43024
802.9882 24367.22370
803.1737 23972.70300
803.3592 24194.35466
803.5447 24389.44416
803.7302 24430.97697
803.9157 24368.94399
804.1012 24441.85168
804.2866 23995.18970
804.4720 24179.48640
804.6574 24021.66993
804.8428 23818.63431
805.0282 23740.34047
805.2136 23832.58098
805.3989 24051.46788
805.5843 23751.25614
805.7696 23641.66933
805.9549 23578.18230
806.1402 23548.79395
806.3255 23323.10779
806.5107 23381.86402
806.6960 23722.21594
806.8812 23409.53207
807.0664 23516.47700
807.2516 23151.46753
807.4368 23042.47463
807.6220 23072.43642
807.8072 23070.55229
807.9923 23109.23842
808.1774 23088.45153
808.3625 23365.07067
808.5476 23338.65188
808.7327 23372.73008
808.9178 23070.94140
809.1028 23156.79225
809.2879 23003.50179
809.4729 23021.52391
809.6579 22807.59310
809.8429 23080.28014
810.0279 23021.93351
810.2128 23004.58721
810.3978 22993.09811
810.5827 22965.90108
810.7676 23144.38156
810.9525 23199.00089
811.1374 23018.43148
811.3223 22909.90962
811.5072 22472.58637
811.6920 22421.61243
811.8768 22695.44633
812.0616 22404.20469
812.2464 22585.79808
812.4312 22460.54431
812.6160 22430.80781
812.8007 22646.21316
812.9855 22856.41667
813.1702 22497.71495
813.3549 22419.21630
813.5396 22252.73692
813.7243 22121.81028
813.9089 22333.46785
814.0936 22412.70376
814.2782 22430.76685
814.4628 22433.69544
814.6474 22467.56885
814.8320 22312.33282
815.0166 22131.98869
815.2012 22360.21432
815.3857 22068.27638
815.5702 22063.52509
815.7547 22104.91454
815.9392 22057.93414
816.1237 21866.49002
816.3082 21496.05343
816.4926 21761.81834
816.6771 21783.77256
816.8615 21521.22297
817.0459 21741.01097
817.2303 21732.08183
817.4147 21884.36879
817.5990 21850.14723
817.7834 21676.23372
817.9677 21665.66620
818.1520 21922.74772
818.3363 21685.83870
818.5206 21444.69038
818.7049 21595.85095
818.8891 21586.71701
819.0734 21539.34749
819.2576 21500.45656
819.4418 21287.26302
819.6260 21287.69309
819.8102 21362.05484
819.9944 21165.59319
820.1785 21034.54367
820.3627 21245.40254
820.5468 21246.93851
820.7309 21072.41062
820.9150 20863.78404
821.0991 20718.29634
821.2831 20968.47620
821.4672 20780.96418
821.6512 20648.89068
821.8352 20739.24706
822.0192 21083.01909
822.2032 20829.21433
822.3872 21004.54093
822.5711 20824.48352
822.7551 20825.75326
822.9390 20942.40556
823.1229 21016.25531
823.3068 20964.23691
823.4907 20602.36083
823.6745 20690.46444
823.8584 20684.25910
824.0422 20616.92189
824.2261 20594.16895
824.4099 20738.46883
824.5937 20882.07240
824.7774 20769.57748
824.9612 20732.40684
825.1449 20628.51339
825.3287 20528.47012
825.5124 20371.04276
825.6961 20634.35010
825.8798 20617.22908
826.0634 20721.10206
826.2471 20452.55191
826.4307 20602.42227
826.6144 20572.89056
826.7980 20685.95891
826.9816 20426.41983
827.1652 20527.52805
827.3487 20469.89821
827.5323 20196.92445
827.7158 20044.92421
827.8993 20399.05897
828.0828 20313.37196
828.2663 20045.98916
828.4498 20185.43535
828.6333 20505.26663
828.8167 20283.90169
829.0001 20289.26737
829.1836 20370.18261
829.3670 20438.13421
829.5504 20637.97500
829.7337 20271.26572
829.9171 20256.02883
830.1004 20220.76281
830.2837 20105.58505
830.4671 19918.13447
830.6504 19683.49869
830.8336 19800.80634
831.0169 19770.08681
831.2002 20022.56040
831.3834 19971.07446
831.5666 19883.50332
831.7498 20043.65447
831.9330 20264.81462
832.1162 20137.98391
832.2993 19931.77394
832.4825 20015.41298
832.6656 19924.81085
832.8487 19790.11594
833.0318 19747.02668
833.2149 19619.68398
833.3980 19807.66703
833.5811 19817.39489
833.7641 19813.21703
833.9471 19690.74850
834.1301 19441.42878
834.3131 19207.93987
834.4961 19422.58747
834.6791 19472.59887
834.8620 19876.80646
835.0450 19781.90359
835.2279 19900.58338
835.4108 19765.29456
835.5937 19887.88597
835.7766 19515.36045
835.9594 19616.40723
836.1423 19561.13256
836.3251 19969.16985
836.5079 19913.60846
836.6907 19511.96083
836.8735 19406.18324
837.0563 19505.91932
837.2390 19445.75000
837.4218 19225.06088
837.6045 19494.86029
837.7872 19669.61346
837.9699 19353.20229
838.1526 19239.86770
838.3352 19298.93112
838.5179 19369.38124
838.7005 19395.80004
838.8831 19457.46438
839.0658 19568.99676
839.2483 19754.05121
839.4309 19666.07048
839.6135 19702.97487
839.7960 19379.21149
839.9786 19491.39922
840.1611 19156.16722
840.3436 19329.95784
840.5261 19143.38789
840.7085 19036.91400
840.8910 18917.96797
841.0734 19038.88005
841.2559 18964.72310
841.4383 19180.35373
841.6207 19421.50205
841.8030 19130.36281
841.9854 19015.67656
842.1678 18933.38918
842.3501 18963.04376
842.5324 18866.11340
842.7147 19007.30037
842.8970 19225.06088
843.0793 19012.54317
843.2615 19030.70865
843.4438 19247.83430
843.6260 19238.24980
843.8082 19219.08082
843.9904 19235.75128
844.1726 18831.31841
844.3548 18674.58736
844.5369 18639.66950
844.7191 18737.21425
844.9012 18633.87375
845.0833 18728.89950
845.2654 18995.25831
845.4475 19128.23292
845.6296 18738.40207
845.8116 18661.78756
845.9936 18638.58407
846.1757 18523.87734
846.3577 18485.49841
846.5397 18459.81688
846.7216 18435.28222
846.9036 18406.71305
847.0855 18161.89887
847.2675 18327.86625
847.4494 18460.08312
847.6313 18569.79280
847.8132 18608.06934
847.9950 18505.67090
848.1769 18440.07446
848.3587 18599.30403
848.5406 18412.24257
848.7224 18389.98115
848.9042 18334.17400
849.0860 18434.42207
849.2677 18248.42555
849.4495 18113.60776
849.6312 18082.21240
849.8129 18303.72070
849.9946 18551.17677
850.1763 18378.16437
850.3580 18175.08779
850.5397 18113.28009
850.7213 17923.35147
850.9029 17928.24611
851.0845 17971.68353
851.2661 17973.56766
851.4477 17964.80235
851.6293 18050.75560
851.8109 18000.94900
851.9924 18034.80193
852.1739 18154.85385
852.3554 18075.67938
852.5369 18115.51238
852.7184 17767.91064
852.8999 17640.67034
853.0813 17657.79136
853.2628 17705.46807
853.4442 17778.43720
853.6256 17708.68338
853.8070 17744.25660
853.9883 17921.20110
854.1697 17804.91743
854.3510 17453.91607
854.5324 17538.21046
854.7137 17534.15549
854.8950 17549.94533
855.0763 17619.43290
855.2575 17564.32207
855.4388 17522.83022
855.6200 17578.49401
855.8013 17541.28242
855.9825 17404.60098
856.1637 17319.99939
856.3449 17375.94990
856.5260 17425.85890
856.7072 17308.22357
856.8883 17488.87490
857.0694 17366.22205
857.2505 17275.43559
857.4316 17272.60940
857.6127 17131.72963
857.7938 17252.02731
857.9748 17096.97560
858.1558 16997.62863
858.3368 16944.25857
858.5178 16951.54934
858.6988 17114.03518
858.8798 17080.55089
859.0607 17193.88548
859.2417 17205.94801
859.4226 17156.14141
859.6035 17177.66557
859.7844 17212.62439
859.9653 17081.51343
860.1462 16973.58548
860.3270 17023.74023
860.5078 16965.76224
860.6887 17010.05980
860.8695 16923.77888
861.0503 16821.64668
861.2310 16513.67314
861.4118 16499.86983
861.5925 16546.39968
861.7733 16552.52310
861.9540 16280.90101
862.1347 16146.49282
862.3154 16084.27553
862.4960 16277.00987
862.6767 16300.54103
862.8573 16307.27885
863.0380 16168.30369
863.2186 16192.10108
863.3992 16007.29238
863.5797 16045.87612
863.7603 16098.40651
863.9409 16131.11258
864.1214 16110.16185
864.3019 16084.25505
864.4824 15969.60976
864.6629 15867.57996
864.8434 15701.63305
865.0238 15794.67227
865.2043 15872.14693
865.3847 15655.47183
865.5651 15580.10658
865.7455 15727.60129
865.9259 15775.70808
866.1063 15581.64256
866.2866 15505.62196
866.4670 15478.81405
866.6473 15451.16647
866.8276 15444.46961
867.0079 15472.52678
867.1882 15318.60145
867.3684 15152.38831
867.5487 15226.70910
867.7289 15224.98880
867.9091 15226.99581
868.0893 15079.00959
868.2695 14778.69545
868.4497 14733.41486
868.6299 14808.67771
868.8100 14809.04635
868.9901 14791.29046
869.1703 15019.18842
869.3504 14996.21021
869.5304 14940.71026
869.7105 15078.72287
869.8906 14946.83369
870.0706 14797.78252
870.2506 14754.42702
870.4306 14755.20525
870.6106 14771.44564
870.7906 14968.19400
870.9706 14864.19815
871.1505 14759.03495
871.3305 14676.52229
871.5104 14585.94063
871.6903 14454.99351
871.8702 14571.33862
872.0500 14569.78216
872.2299 14511.51745
872.4097 14368.36443
872.5896 14402.15592
872.7694 14473.91674
872.9492 14448.66529
873.1290 14090.90563
873.3087 14088.81670
873.4885 14485.77448
873.6682 14405.00259
873.8480 14285.46266
874.0277 14235.10311
874.2074 13972.96311
874.3870 14017.89554
874.5667 13995.51124
874.7463 14171.55464
874.9260 13970.52602
875.1056 13909.88567
875.2852 13894.97646
875.4648 13932.14709
875.6444 13925.38879
875.8239 14024.01897
876.0035 13904.54047
876.1830 13817.29700
876.3625 13739.57659
876.5420 13727.73933
876.7215 13707.03436
876.9010 13567.87489
877.0804 13622.80141
877.2599 13461.19620
877.4393 13698.22810
877.6187 13722.82420
877.7981 13752.02824
877.9775 13625.79144
878.1568 13735.93120
878.3362 13591.89756
878.5155 13588.17026
878.6948 13366.33428
878.8741 13330.96586
879.0534 13300.45113
879.2327 13232.64288
879.4119 13285.07088
879.5912 13143.53576
879.7704 13337.37600
879.9496 13470.20726
880.1288 13394.04330
880.3080 13181.17743
880.4872 13242.20690
880.6663 13254.24895
880.8455 13202.94734
881.0246 13315.44226
881.2037 13267.11020
881.3828 13114.94612
881.5619 13115.74483
881.7409 13136.34739
881.9200 13066.77789
882.0990 13100.38506
882.2780 12959.68961
882.4570 12962.70012
882.6360 13033.45744
882.8150 12878.65148
882.9940 12841.89045
883.1729 12856.49246
883.3518 13044.82367
883.5308 12963.64219
883.7096 13001.52961
883.8885 12817.74489
884.0674 12746.10695
884.2463 12665.60130
884.4251 12762.36782
884.6039 12647.41533
884.7827 12700.00717
884.9615 12645.36736
885.1403 12568.36374
885.3191 12532.42189
885.4978 12393.75392
885.6765 12374.29822
885.8553 12486.95698
886.0340 12570.12499
886.2127 12486.71123
886.3913 12308.31267
886.5700 12166.69563
886.7486 12123.83164
886.9273 12166.28603
887.1059 12089.52817
887.2845 11973.49026
887.4630 11953.27680
887.6416 12076.60548
887.8202 12110.66320
887.9987 12110.66320
888.1772 12119.32611
888.3557 12077.85474
888.5342 11917.72407
888.7127 12093.86986
888.8912 12136.75433
889.0696 12157.17257
889.2481 11939.86261
889.4265 11818.56142
889.6049 11771.70390
889.7833 11696.11337
889.9616 11635.35014
890.1400 11653.57706
890.3183 11539.87383
890.4967 11627.75217
890.6750 11822.43208
890.8533 11673.50379
891.0316 11530.82181
891.2098 11400.75532
891.3881 11381.89352
891.5663 11348.14300
891.7445 11399.79277
891.9227 11386.29666
892.1009 11323.40354
892.2791 11427.46083
892.4573 11414.16951
892.6354 11321.39653
892.8136 11413.47320
892.9917 11370.73209
893.1698 11259.38403
893.3479 11368.72508
893.5259 11417.11859
893.7040 11251.94991
893.8820 11264.58587
894.0601 11180.45532
894.2381 11278.77830
894.4161 11358.62860
894.5941 11463.70987
894.7720 11409.54110
894.9500 11379.37452
895.1279 11437.55731
895.3058 11246.37943
895.4838 11182.91288
895.6616 11111.78692
895.8395 11045.26890
896.0174 11075.31260
896.1952 11166.11954
896.3731 11214.22632
896.5509 11146.35664
896.7287 11080.12533
896.9065 11051.82240
897.0842 11170.66603
897.2620 11083.62735
897.4397 10940.94537
897.6175 10999.68112
897.7952 11101.38324
897.9729 11134.86753
898.1506 11021.36910
898.3282 10879.38343
898.5059 10900.47751
898.6835 10903.34467
898.8611 10953.21270
899.0388 10754.45734
899.2163 10595.43256
899.3939 10584.84457
899.5715 10789.08849
899.7490 10756.54627
899.9266 10634.81500
900.1041 10675.01663
900.2816 10730.41418
900.4591 10695.53728
900.6365 10758.92191
900.8140 10639.38197
900.9914 10631.12866
901.1689 10636.84249
901.3463 10690.58119
901.5237 10710.42601
901.7011 10565.36838
901.8784 10541.50955
902.0558 10399.25764
902.2331 10485.90720
902.4104 10520.16971
902.5878 10542.00106
902.7650 10483.38819
902.9423 10417.70984
903.1196 10521.80809
903.2968 10569.36192
903.4741 10520.06731
903.6513 10408.14582
903.8285 10365.01560
904.0057 10421.04802
904.1828 10311.89129
904.3600 10207.89544
904.5371 10191.51169
904.7143 10223.46000
904.8914 10237.14043
905.0685 10320.79995
905.2456 10275.84704
905.4226 10269.80553
905.5997 10363.54106
905.7767 10423.40319
905.9537 10313.16103
906.1307 10228.27273
906.3077 10195.91482
906.4847 10186.18697
906.6617 10089.33853
906.8386 10208.89894
907.0156 10100.21324
907.1925 10067.58910
907.3694 10077.97230
907.5463 10064.53762
907.7231 10056.55055
907.9000 10082.02728
908.0768 10028.12474
908.2537 9910.85805
908.4305 9859.26972
908.6073 9934.83976
908.7841 9955.27849
908.9608 9863.07894
909.1376 9839.60922
909.3143 9883.76342
909.4910 9837.06974
909.6677 9890.09165
909.8444 9874.03557
910.0211 9849.45995
910.1978 9815.72990
910.3744 9881.85881
910.5510 9909.46543
910.7277 9925.25527
910.9043 9745.11594
911.0808 9715.54327
911.2574 9693.56857
911.4340 9704.42280
911.6105 9567.74137
911.7870 9574.39726
911.9636 9669.19774
912.1401 9604.78912
912.3165 9621.13191
912.4930 9564.30078
912.6695 9492.74475
912.8459 9485.59734
913.0223 9475.84901
913.1987 9462.12762
913.3751 9476.81155
913.5515 9472.24458
913.7279 9498.56098
913.9042 9441.85273
914.0805 9301.11631
914.2568 9291.47038
914.4331 9270.66302
914.6094 9290.11872
914.7857 9308.63236
914.9620 9338.79894
915.1382 9252.19034
915.3144 9187.08541
915.4906 9312.21630
915.6668 9353.07328
915.8430 9268.77889
916.0192 9091.71151
916.1953 9132.44561
916.3715 9164.29152
916.5476 9120.05540
916.7237 9226.20162
916.8998 9173.81458
917.0759 9034.08167
917.2519 8983.10773
917.4280 9129.61941
917.6040 9031.66507
917.7800 9020.27836
917.9560 8970.16456
918.1320 8993.10181
918.3080 9021.58906
918.4839 8970.98375
918.6599 8966.10959
918.8358 8936.61884
919.0117 8938.27769
919.1876 8898.89525
919.3635 8873.78715
919.5394 8993.98244
919.7152 8931.41700
919.8911 8917.20409
920.0669 8880.38161
920.2427 8695.45004
920.4185 8667.78198
920.5942 8689.79764
920.7700 8637.90211
920.9458 8735.22159
921.1215 8771.61399
921.2972 8743.90498
921.4729 8687.46296
921.6486 8544.76050
921.8243 8402.22187
921.9999 8431.95838
922.1756 8438.22516
922.3512 8474.67900
922.5268 8424.81097
922.7024 8536.15903
922.8780 8558.15421
923.0535 8520.53302
923.2291 8429.19362
923.4046 8511.60388
923.5801 8636.61189
923.7557 8571.95752
923.9311 8500.68821
924.1066 8431.36447
924.2821 8504.57935
924.4575 8506.56588
924.6330 8452.27423
924.8084 8374.06230
924.9838 8290.34134
925.1592 8308.89593
925.3345 8286.85979
925.5099 8198.36706
925.6852 8175.88036
925.8606 8237.52422
926.0359 8117.22654
926.2112 8099.98264
926.3864 8078.99096
926.5617 7964.61191
926.7370 7928.15806
926.9122 7903.99203
927.0874 7922.83335
927.2626 7921.37929
927.4378 7918.26637
927.6130 7922.44423
927.7882 7898.93355
927.9633 7806.42680
928.1384 7776.69030
928.3135 7705.46194
928.4886 7635.87196
928.6637 7688.13613
928.8388 7717.13536
929.0139 7707.24368
929.1889 7678.98171
929.3639 7674.59905
929.5389 7687.78797
929.7139 7681.60311
929.8889 7680.37432
930.0639 7672.38725
930.2388 7579.14323
930.4138 7551.22942
930.5887 7536.29972
930.7636 7542.23883
930.9385 7522.86505
931.1134 7457.59628
931.2882 7471.21528
931.4631 7365.29433
931.6379 7303.91671
931.8127 7265.92689
931.9875 7256.93631
932.1623 7291.26026
932.3371 7254.74498
932.5118 7227.97803
932.6866 7190.74596
932.8613 7221.09685
933.0360 7215.75165
933.2107 7191.50370
933.3854 7134.91833
933.5600 7139.97681
933.7347 7031.70070
933.9093 7066.39329
934.0839 7090.37501
934.2586 7135.77848
934.4331 7098.28017
934.6077 7032.62229
934.7823 6959.50980
934.9568 7020.72359
935.1314 6960.04228
935.3059 6954.20557
935.4804 6869.19438
935.6549 6874.74438
935.8293 6898.76705
936.0038 6838.35197
936.1782 6870.50508
936.3526 6882.50618
936.5271 6801.32470
936.7015 6728.47845
936.8758 6752.41920
937.0502 6684.95911
937.2246 6684.16041
937.3989 6770.97380
937.5732 6684.32424
937.7475 6645.88387
937.9218 6606.00992
938.0961 6590.44536
938.2703 6579.57064
938.4446 6524.05021
938.6188 6545.16477
938.7930 6541.10979
938.9672 6507.89174
939.1414 6564.68191
939.3156 6473.15819
939.4897 6448.70544
939.6639 6386.65199
939.8380 6371.39462
940.0121 6358.45146
940.1862 6382.14645
940.3603 6390.11305
940.5344 6396.01120
940.7084 6410.83850
940.8824 6374.58945
941.0565 6354.10976
941.2305 6307.78471
941.4045 6200.10251
941.5784 6193.24182
941.7524 6197.97262
941.9263 6244.80967
942.1003 6237.84658
942.2742 6229.63422
942.4481 6159.16362
942.6220 6198.87373
942.7958 6156.41934
942.9697 6139.66695
943.1435 6072.82125
943.3174 6117.77417
943.4912 6050.12976
943.6650 6052.77164
943.8387 5979.86395
944.0125 5963.21397
944.1863 6033.15210
944.3600 6036.75652
944.5337 6052.77164
944.7074 6102.08673
944.8811 6012.57001
945.0548 6001.63386
945.2284 5914.92286
945.4021 5910.76549
945.5757 5965.30290
945.7493 5926.28909
945.9229 5750.45049
946.0965 5681.94594
946.2701 5670.19060
946.4436 5739.18667
946.6172 5743.18020
946.7907 5722.70052
946.9642 5732.71508
947.1377 5726.59166
947.3112 5672.32049
947.4847 5699.51751
947.6581 5712.89075
947.8315 5736.60622
948.0050 5632.13934
948.1784 5587.39122
948.3518 5629.16978
948.5251 5624.02938
948.6985 5686.71771
948.8718 5635.35465
949.0452 5516.65438
949.2185 5500.22967
949.3918 5496.68669
949.5651 5540.77945
949.7383 5479.99574
949.9116 5471.86530
950.0848 5521.71286
950.2581 5534.53315
950.4313 5585.81429
950.6045 5609.95984
950.7776 5604.81944
950.9508 5477.02619
951.1239 5462.44465
951.2971 5373.43993
951.4702 5389.14785
951.6433 5412.41277
951.8164 5343.66246
951.9895 5350.50268
952.1625 5316.17872
952.3356 5346.22242
952.5086 5289.49369
952.6816 5317.69422
952.8546 5271.28725
953.0276 5218.10150
953.2006 5236.65609
953.3735 5249.66070
953.5465 5281.71141
953.7194 5273.80625
953.8923 5232.17104
954.0652 5236.75849
954.2381 5174.47976
954.4109 5156.10948
954.5838 5140.79068
954.7566 5124.75508
954.9294 5073.35107
955.1022 5062.55827
955.2750 5098.13149
955.4478 5071.38502
955.6206 5100.83481
955.7933 5111.46376
955.9660 5083.61139
956.1388 5129.48589
956.3115 5102.16599
956.4841 5025.26476
956.6568 4965.30023
956.8295 5007.22215
957.0021 4973.84026
957.1747 4966.11942
957.3473 4931.63163
957.5199 4905.11043
957.6925 4898.70029
957.8651 4895.99697
958.0376 4886.14624
958.2102 4859.21545
958.3827 4906.25730
958.5552 4940.92941
958.7277 4894.29716
958.9001 4860.40328
959.0726 4808.13911
959.2450 4766.66775
959.4175 4802.30240
959.5899 4760.52384
959.7623 4721.10044
959.9347 4682.96726
960.1070 4658.53500
960.2794 4660.21433
960.4517 4653.31268
960.6241 4673.81284
960.7964 4673.87428
960.9687 4694.06725
961.1409 4698.63422
961.3132 4670.72041
961.4855 4628.20458
961.6577 4609.73190
961.8299 4578.09078
962.0021 4566.21256
962.1743 4552.77789
962.3465 4509.85246
962.5186 4501.35339
962.6908 4497.44177
962.8629 4488.36927
963.0350 4431.12855
963.2071 4447.94237
963.3792 4472.90711
963.5513 4457.34255
963.7233 4509.31999
963.8954 4498.79343
964.0674 4488.02112
964.2394 4453.34901
964.4114 4422.79331
964.5834 4415.13391
964.7553 4394.16271
964.9273 4403.89056
965.0992 4385.56124
965.2711 4433.60659
965.4430 4420.49959
965.6149 4380.52324
965.7868 4371.32786
965.9587 4360.33027
966.1305 4380.66660
966.3023 4357.34023
966.4741 4326.86646
966.6459 4331.74062
966.8177 4336.34855
966.9895 4339.17475
967.1613 4353.30573
967.3330 4334.85353
967.5047 4293.58696
967.6764 4284.04343
967.8481 4274.70469
968.0198 4230.22281
968.1915 4199.70808
968.3631 4161.45202
968.5347 4173.59648
968.7064 4179.92470
968.8780 4171.05699
969.0496 4159.89556
969.2211 4137.01975
969.3927 4138.61717
969.5642 4088.97441
969.7358 4083.19913
969.9073 4062.90376
970.0788 4107.48804
970.2503 4120.10353
970.4217 4109.39265
970.5932 4103.39211
970.7646 4083.21961
970.9360 4119.63250
971.1074 4122.17198
971.2788 4142.32399
971.4502 4102.28620
971.6216 4054.99860
971.7929 4017.82797
971.9643 4031.28313
972.1356 4073.92184
972.3069 4054.07702
972.4782 4018.83148
972.6494 3998.22891
972.8207 3991.02006
972.9919 3981.37413
973.1632 3943.65054
973.3344 3947.68504
973.5056 3902.40445
973.6768 3883.19451
973.8479 3907.36054
974.0191 3929.99059
974.1902 3951.30995
974.3614 3936.54409
974.5325 3910.59633
974.7036 3892.32845
974.8746 3873.22090
975.0457 3885.03768
975.2167 3847.35505
975.3878 3820.93626
975.5588 3781.04182
975.7298 3801.84919
975.9008 3778.83002
976.0718 3773.71010
976.2427 3761.77044
976.4137 3766.91084
976.5846 3755.21694
976.7555 3737.11290
976.9264 3734.02046
977.0973 3729.28965
977.2682 3756.48668
977.4390 3770.12615
977.6098 3772.68611
977.7807 3748.35624
977.9515 3760.15254
978.1223 3757.57210
978.2930 3724.27213
978.4638 3704.83691
978.6346 3672.76572
978.8053 3633.36280
978.9760 3640.34637
979.1467 3596.76560
979.3174 3609.40156
979.4881 3607.96799
979.6587 3624.76133
979.8294 3601.78312
980.0000 3575.85584
980.1706 3564.05954
980.3412 3567.43868
980.5118 3587.36542
980.6824 3575.99919
980.8529 3588.12317
981.0235 3579.58314
981.1940 3568.27835
981.3645 3529.85846
981.5350 3534.93742
981.7055 3518.75847
981.8759 3515.58412
982.0464 3509.54261
982.2168 3487.09687
982.3872 3528.79351
982.5576 3493.54797
982.7280 3475.32105
982.8984 3483.08285
983.0687 3493.50701
983.2391 3486.93303
983.4094 3480.64577
983.5797 3462.45981
983.7500 3448.45170
983.9203 3410.31852
984.0906 3420.61980
984.2608 3396.06466
984.4311 3417.03586
984.6013 3377.07999
984.7715 3422.19674
984.9417 3429.11888
985.1119 3403.74454
985.2820 3348.26507
985.4522 3336.01822
985.6223 3351.43942
985.7924 3368.58092
985.9625 3395.96226
986.1326 3388.01614
986.3027 3354.32706
986.4727 3374.45859
986.6428 3351.99237
986.8128 3329.03464
986.9828 3324.32431
987.1528 3297.57784
987.3228 3291.88449
987.4928 3283.91789
987.6627 3313.61344
987.8327 3275.45978
988.0026 3275.99225
988.1725 3287.44040
988.3424 3270.15554
988.5123 3271.20000
988.6821 3261.84079
988.8520 3245.78471
989.0218 3206.70947
989.1916 3209.26943
989.3614 3175.10931
989.5312 3182.64584
989.7010 3180.67979
989.8707 3198.82479
990.0405 3185.47203
990.2102 3205.52165
990.3799 3179.22573
990.5496 3156.00176
990.7193 3134.90768
990.8890 3139.00362
991.0586 3130.34071
991.2283 3142.95620
991.3979 3141.68646
991.5675 3162.84198
991.7371 3146.66302
991.9067 3125.65087
992.0762 3103.61472
992.2458 3112.85106
992.4153 3135.56303
992.5848 3127.47356
992.7543 3127.26876
992.9238 3082.15201
993.0933 3095.40237
993.2627 3098.88391
993.4322 3077.72840
993.6016 3087.31289
993.7710 3040.31201
993.9404 3046.14872
994.1098 3029.43729
994.2792 3040.94688
994.4485 3030.62512
994.6179 3035.97031
994.7872 3031.75150
994.9565 3049.91698
995.1258 3058.06790
995.2951 3039.10371
995.4643 3045.80056
995.6336 3050.98193
995.8028 3032.71404
995.9720 3001.35964
996.1412 2997.73474
996.3104 3004.59543
996.4796 3019.87328
996.6487 3010.41166
996.8179 3019.15649
996.9870 3014.36424
997.1561 2973.75302
997.3252 2968.94030
997.4943 2962.96023
997.6634 2953.29382
997.8324 2961.67001
998.0014 2950.28330
998.1705 2934.61634
998.3395 2922.04181
998.5085 2886.75531
998.6774 2898.83833
998.8464 2873.75071
999.0153 2886.26380
999.1843 2896.23741
999.3532 2899.22744
999.5221 2868.13927
999.6910 2876.76122
999.8599 2906.43629
1000.0287 2924.88849
1000.1976 2905.00271
1000.3664 2926.89550
1000.5352 2917.74108
1000.7040 2933.18276
1000.8728 2899.35032
1001.0415 2871.55938
1001.2103 2844.21900
1001.3790 2840.61458
1001.5478 2809.71073
1001.7165 2814.72825
1001.8851 2807.10981
1002.0538 2818.04596
1002.2225 2828.06053
1002.3911 2826.11496
1002.5598 2801.17070
1002.7284 2797.34100
1002.8970 2774.38327
1003.0656 2785.15558
1003.2341 2750.74971
1003.4027 2759.55597
1003.5712 2720.54217
1003.7398 2722.81541
1003.9083 2729.65563
1004.0768 2707.59900
1004.2453 2703.07299
1004.4137 2736.51632
1004.5822 2729.88090
1004.7506 2734.32500
1004.9190 2718.14604
1005.0874 2714.09107
1005.2558 2719.86634
1005.4242 2724.80194
1005.5926 2716.85582
1005.7609 2713.47668
1005.9292 2699.22281
1006.0976 2718.35084
1006.2659 2717.40877
1006.4342 2735.49234
1006.6024 2704.89569
1006.7707 2698.64938
1006.9389 2705.46912
1007.1071 2704.15842
1007.2754 2704.01506
1007.4436 2691.87060
1007.6117 2681.18021
1007.7799 2665.61565
1007.9481 2675.38446
1008.1162 2682.14275
1008.2843 2663.36288
1008.4524 2665.98428
1008.6205 2645.54555
1008.7886 2660.43428
1008.9566 2648.06455
1009.1247 2620.80609
1009.2927 2619.96642
1009.4607 2612.18414
1009.6287 2604.05370
1009.7967 2604.85241
1009.9647 2581.19837
1010.1327 2567.84562
1010.3006 2546.46482
1010.4685 2538.43679
1010.6364 2546.60818
1010.8043 2552.36297
1010.9722 2527.82831
1011.1401 2531.06410
1011.3079 2528.15598
1011.4758 2538.60062
1011.6436 2532.19048
1011.8114 2543.37239
1011.9792 2547.30449
1012.1470 2564.46647
1012.3147 2559.14175
1012.4825 2562.95097
1012.6502 2558.99839
1012.8179 2537.98623
1012.9856 2521.50008
1013.1533 2524.81779
1013.3210 2500.16025
1013.4886 2494.87649
1013.6563 2486.00879
1013.8239 2484.47281
1013.9915 2505.09585
1014.1591 2477.55067
1014.3267 2498.68571
1014.4942 2506.16080
1014.6618 2487.40140
1014.8293 2497.37501
1014.9969 2489.06026
1015.1644 2518.91964
1015.3319 2509.37611
1015.4993 2489.16266
1015.6668 2456.70235
1015.8342 2461.02357
1016.0017 2453.87616
1016.1691 2455.00254
1016.3365 2466.04109
1016.5039 2453.52800
1016.6712 2450.39461
1016.8386 2453.60992
1017.0059 2441.15827
1017.1733 2450.10789
1017.3406 2437.73816
1017.5079 2440.93299
1017.6752 2428.82950
1017.8424 2423.29998
1018.0097 2399.83026
1018.1769 2425.94186
1018.3441 2397.88469
1018.5113 2404.80683
1018.6785 2388.68931
1018.8457 2393.33820
1019.0129 2388.34116
1019.1800 2405.93321
1019.3471 2417.64759
1019.5142 2394.85370
1019.6813 2401.10000
1019.8484 2400.42417
1020.0155 2381.91053
1020.1826 2377.28213
1020.3496 2364.03177
1020.5166 2346.09156
1020.6836 2343.49064
1020.8506 2345.12902
1021.0176 2329.25726
1021.1846 2345.64101
1021.3515 2337.14194
1021.5185 2347.19746
1021.6854 2346.62403
1021.8523 2341.68843
1022.0192 2357.33491
1022.1861 2343.53160
1022.3529 2325.14084
1022.5198 2346.70595
1022.6866 2318.42350
1022.8534 2338.84175
1023.0202 2321.72073
1023.1870 2319.73420
1023.3538 2304.35396
1023.5205 2318.03439
1023.6873 2302.69510
1023.8540 2314.67572
1024.0207 2298.80396
1024.1874 2301.52776
1024.3541 2297.30895
1024.5207 2301.65064
1024.6874 2278.95915
1024.8540 2292.06615
1025.0206 2269.64089
1025.1872 2293.11061
1025.3538 2274.12594
1025.5204 2284.01763
1025.6870 2268.65786
1025.8535 2263.82466
1026.0201 2264.64384
1026.1866 2260.50695
1026.3531 2244.34847
1026.5196 2251.29109
1026.6860 2257.80363
1026.8525 2252.97042
1027.0189 2230.95476
1027.1853 2238.73704
1027.3518 2239.47431
1027.5181 2248.52633
1027.6845 2247.13371
1027.8509 2235.13261
1028.0172 2210.92562
1028.1836 2197.79814
1028.3499 2195.13578
1028.5162 2203.16382
1028.6825 2193.72269
1028.8488 2182.62270
1029.0150 2195.62730
1029.1813 2184.09723
1029.3475 2158.68194
1029.5137 2182.27454
1029.6799 2186.10424
1029.8461 2171.60462
1030.0123 2181.00480
1030.1784 2177.93285
1030.3446 2175.29097
1030.5107 2183.23709
1030.6768 2169.12658
1030.8429 2166.05463
1031.0090 2162.79836
1031.1750 2154.09449
1031.3411 2158.96866
1031.5071 2153.82825
1031.6732 2147.66387
1031.8392 2156.79781
1032.0051 2146.82420
1032.1711 2143.40409
1032.3371 2141.74524
1032.5030 2134.78215
1032.6690 2134.41351
1032.8349 2133.53288
1033.0008 2123.62072
1033.1667 2126.48787
1033.3325 2116.26851
1033.4984 2120.09821
1033.6642 2107.23697
1033.8300 2138.96000
1033.9959 2115.57220
1034.1616 2120.18013
1034.3274 2120.01629
1034.4932 2115.24452
1034.6589 2091.97960
1034.8247 2103.05911
1034.9904 2088.72333
1035.1561 2100.49915
1035.3218 2095.56354
1035.4875 2085.18034
1035.6531 2078.58588
1035.8188 2084.91411
1035.9844 2071.45895
1036.1500 2085.91761
1036.3156 2066.01135
1036.4812 2065.99088
1036.6468 2057.00029
1036.8123 2060.48184
1036.9779 2058.84346
1037.1434 2075.67777
1037.3089 2067.48589
1037.4744 2072.29862
1037.6399 2064.14770
1037.8053 2058.47483
1037.9708 2058.49531
1038.1362 2061.87446
1038.3016 2059.96985
1038.4670 2058.29051
1038.6324 2058.65915
1038.7978 2026.89515
1038.9632 2042.29588
1039.1285 2039.24440
1039.2938 2027.75530
1039.4592 2041.84532
1039.6245 2027.48906
1039.7897 2031.38020
1039.9550 2022.84017
1040.1203 2026.99755
1040.2855 2016.75771
1040.4507 2037.56507
1040.6159 2025.48205
1040.7811 2023.31121
1040.9463 2012.66177
1041.1115 2017.18778
1041.2766 2000.10772
1041.4418 1996.19610
1041.6069 1991.75201
1041.7720 1992.32544
1041.9371 1976.16697
1042.1021 1986.46825
1042.2672 1985.79242
1042.4323 1985.54666
1042.5973 1976.98615
1042.7623 1973.77084
1042.9273 1982.22895
1043.0923 1981.69648
1043.2572 1975.30682
1043.4222 1956.75222
1043.5871 1949.09282
1043.7521 1966.43911
1043.9170 1984.68652
1044.0819 1954.11034
1044.2467 1949.99392
1044.4116 1955.17529
1044.5765 1950.07584
1044.7413 1951.52990
1044.9061 1938.87345
1045.0709 1955.64632
1045.2357 1934.67512
1045.4005 1925.25446
1045.5652 1927.07715
1045.7300 1919.62255
1045.8947 1922.30539
1046.0594 1924.78343
1046.2241 1911.20540
1046.3888 1926.81092
1046.5535 1913.58104
1046.7181 1919.70447
1046.8828 1915.05558
1047.0474 1902.91112
1047.2120 1899.57293
1047.3766 1912.80281
1047.5412 1894.51445
1047.7057 1900.31020
1047.8703 1898.48751
1048.0348 1896.29618
1048.1993 1891.07386
1048.3639 1893.83862
1048.5283 1883.63974
1048.6928 1877.84399
1048.8573 1867.41983
1049.0217 1871.16761
1049.1861 1865.00322
1049.3506 1884.66372
1049.5150 1852.49013
1049.6793 1868.46429
1049.8437 1860.08810
1050.0081 1865.80193
1050.1724 1846.79678
1050.3367 1863.46725
1050.5010 1846.63294
1050.6653 1850.81080
1050.8296 1842.57796
1050.9939 1837.62188
1051.1581 1821.07429
1051.3224 1845.56800
1051.4866 1826.72669
1051.6508 1837.51948
1051.8150 1829.08185
1051.9791 1822.63075
1052.1433 1815.11470
1052.3074 1809.93334
1052.4716 1819.23112
1052.6357 1804.67006
1052.7998 1807.16858
1052.9639 1811.03925
1053.1279 1793.50863
1053.2920 1803.72800
1053.4560 1788.14295
1053.6201 1816.28205
1053.7841 1806.94331
1053.9481 1797.42025
1054.1120 1802.19202
1054.2760 1790.41620
1054.4399 1795.92524
1054.6039 1789.26934
1054.7678 1780.91362
1054.9317 1778.12839
1055.0956 1779.31621
1055.2595 1786.91417
1055.4233 1768.29814
1055.5872 1765.47194
1055.7510 1760.84353
1055.9148 1759.38947
1056.0786 1759.59427
1056.2424 1765.98393
1056.4062 1749.29299
1056.5699 1757.85350
1056.7336 1740.71200
1056.8974 1740.99871
1057.0611 1735.22344
1057.2248 1727.97363
1057.3885 1730.39024
1057.5521 1734.62953
1057.7158 1728.66994
1057.8794 1730.90223
1058.0430 1729.36625
1058.2066 1724.32825
1058.3702 1710.09487
1058.5338 1733.44171
1058.6973 1722.42364
1058.8609 1721.48157
1059.0244 1710.42254
1059.1879 1718.20482
1059.3514 1698.85152
1059.5149 1710.95501
1059.6784 1700.53085
1059.8418 1692.25706
1060.0053 1698.95392
1060.1687 1699.42495
1060.3321 1681.81242
1060.4955 1696.49635
1060.6589 1680.01020
1060.8222 1685.19157
1060.9856 1689.32846
1061.1489 1686.68658
1061.3122 1675.50467
1061.4755 1685.47828
1061.6388 1669.95468
1061.8021 1689.73806
1061.9654 1664.19989
1062.1286 1669.54508
1062.2918 1674.64453
1062.4550 1666.32977
1062.6182 1652.07591
1062.7814 1671.34730
1062.9446 1661.14841
1063.1077 1654.77923
1063.2709 1639.09179
1063.4340 1633.39844
1063.5971 1631.92390
1063.7602 1646.50544
1063.9233 1632.96836
1064.0863 1648.81964
1064.2494 1636.77758
1064.4124 1644.00691
1064.5754 1628.05324
1064.7384 1630.63368
1064.9014 1622.35988
1065.0644 1622.21653
1065.2274 1619.49273
1065.3903 1624.34641
1065.5532 1606.69292
1065.7162 1619.92280
1065.8790 1617.44476
1066.0419 1617.40380
1066.2048 1612.30436
1066.3677 1604.93167
1066.5305 1603.04754
1066.6933 1599.50455
1066.8561 1590.45253
1067.0189 1592.23426
1067.1817 1584.12431
1067.3445 1587.70825
1067.5072 1569.91140
1067.6699 1579.84405
1067.8327 1576.54682
1067.9954 1579.80309
1068.1580 1567.55624
1068.3207 1572.02081
1068.4834 1564.42285
1068.6460 1563.41934
1068.8086 1570.28004
1068.9713 1564.97580
1069.1339 1549.96419
1069.2964 1549.14500
1069.4590 1550.31234
1069.6216 1558.25846
1069.7841 1535.03450
1069.9466 1540.62545
1070.1091 1533.84668
1070.2716 1543.88172
1070.4341 1544.37323
1070.5966 1545.62250
1070.7590 1529.05443
1070.9214 1531.92158
1071.0839 1528.64483
1071.2463 1527.64133
1071.4086 1523.42251
1071.5710 1516.62326
1071.7334 1516.23414
1071.8957 1514.53433
1072.0580 1505.62567
1072.2204 1510.23360
1072.3827 1501.01774
1072.5449 1502.06220
1072.7072 1494.46424
1072.8695 1492.02715
1073.0317 1485.92421
1073.1939 1489.75391
1073.3561 1482.74985
1073.5183 1491.04413
1073.6805 1467.59489
1073.8427 1485.61701
1074.0048 1470.97403
1074.1669 1482.54506
1074.3291 1471.77274
1074.4912 1483.15945
1074.6532 1460.32460
1074.8153 1462.74120
1074.9774 1453.34102
1075.1394 1468.16832
1075.3014 1457.96943
1075.4635 1461.43050
1075.6255 1455.06132
1075.7874 1458.23567
1075.9494 1440.50026
1076.1114 1446.02977
1076.2733 1440.17258
1076.4352 1441.13513
1076.5971 1428.99068
1076.7590 1434.88882
1076.9209 1424.07555
1077.0828 1436.32240
1077.2446 1414.30674
1077.4064 1427.63902
1077.5683 1422.00710
1077.7301 1420.90120
1077.8918 1413.05748
1078.0536 1415.71984
1078.2154 1405.78719
1078.3771 1410.82519
1078.5388 1410.86615
1078.7006 1417.46061
1078.8623 1400.79015
1079.0239 1401.75269
1079.1856 1394.78960
1079.3473 1409.06394
1079.5089 1393.99089
1079.6705 1397.71819
1079.8321 1391.90196
1079.9937 1394.11377
1080.1553 1376.29644
1080.3169 1388.68665
1080.4784 1383.13665
1080.6399 1382.31747
1080.8014 1372.54866
1080.9629 1381.37540
1081.1244 1385.34846
1081.2859 1375.12910
1081.4474 1358.54055
1081.6088 1372.58962
1081.7702 1366.56859
1081.9316 1366.69147
1082.0930 1359.78981
1082.2544 1365.40125
1082.4158 1352.99055
1082.5771 1361.85826
1082.7385 1352.97008
1082.8998 1360.32228
1083.0611 1346.90809
1083.2224 1342.15680
1083.3837 1339.88355
1083.5449 1339.51492
1083.7062 1327.92342
1083.8674 1328.16917
1084.0286 1322.55774
1084.1898 1332.03983
1084.3510 1322.37342
1084.5122 1324.93338
1084.6734 1310.55664
1084.8345 1318.50276
1084.9956 1310.14705
1085.1567 1307.15701
1085.3178 1309.98321
1085.4789 1316.57767
1085.6400 1311.90830
1085.8010 1312.15406
1085.9621 1306.19447
1086.1231 1301.38174
1086.2841 1285.94006
1086.4451 1303.24539
1086.6061 1295.38119
1086.7670 1294.00905
1086.9280 1288.54098
1087.0889 1295.68839
1087.2498 1293.14891
1087.4107 1292.30924
1087.5716 1285.71478
1087.7325 1278.95648
1087.8933 1276.96995
1088.0542 1303.26587
1088.2150 1274.53287
1088.3758 1282.43803
1088.5366 1280.73822
1088.6974 1274.61479
1088.8582 1274.30760
1089.0189 1269.06480
1089.1796 1269.49487
1089.3404 1276.45796
1089.5011 1267.48786
1089.6618 1279.44800
1089.8224 1263.06425
1089.9831 1279.24320
1090.1438 1268.51184
1090.3044 1270.53933
1090.4650 1267.97937
1090.6256 1269.94542
1090.7862 1261.44635
1090.9468 1274.51239
1091.1073 1264.45687
1091.2679 1262.59321
1091.4284 1263.24856
1091.5889 1278.58785
1091.7494 1264.49782
1091.9099 1260.87292
1092.0703 1267.42642
1092.2308 1265.78805
1092.3912 1260.83196
1092.5516 1268.34801
1092.7121 1257.08418
1092.8724 1257.86241
1093.0328 1255.20005
1093.1932 1257.00226
1093.3535 1257.53473
1093.5139 1263.37144
1093.6742 1259.97181
1093.8345 1264.45687
1093.9948 1252.21001
1094.1550 1248.74895
1094.3153 1257.24802
1094.4755 1262.38842
1094.6358 1257.78049
1094.7960 1259.15263
1094.9562 1254.25798
1095.1163 1266.64819
1095.2765 1243.30135
1095.4367 1260.13565
1095.5968 1259.68510
1095.7569 1257.20706
1095.9170 1248.74895
1096.0771 1257.90337
1096.2372 1253.90983
1096.3973 1261.28251
1096.5573 1248.85134
1096.7173 1254.19654
1096.8773 1255.60964
1097.0374 1250.65356
1097.1973 1248.99470
1097.3573 1256.06019
1097.5173 1247.92976
1097.6772 1256.71554
1097.8371 1251.08363
1097.9970 1250.91979
1098.1569 1247.17201
1098.3168 1250.85835
1098.4767 1245.86131
1098.6365 1261.22108
1098.7964 1256.42883
1098.9562 1257.49377
1099.1160 1240.61851
1099.2758 1259.66462
1099.4356 1242.80984
1099.5953 1257.30945
1099.7551 1250.89931
1099.9148 1256.53123
1100.0745 1245.92275
1100.2342 1254.79045
1100.3939 1249.85485
1100.5536 1272.30059
1100.7132 1250.14156
1100.8729 1263.65816
1101.0325 1258.27200
1101.1921 1251.49322
1101.3517 1243.97718
1101.5113 1253.56167
1101.6709 1247.27441
1101.8304 1255.65060
1101.9899 1246.04563
1102.1495 1257.84193
1102.3090 1246.27090
1102.4685 1260.83196
1102.6279 1241.29434
1102.7874 1247.31537
1102.9468 1242.76888
1103.1063 1252.49673
1103.2657 1254.44230
1103.4251 1253.58215
1103.5845 1249.24046
1103.7438 1254.85189
1103.9032 1242.72792
1104.0625 1253.33640
1104.2219 1248.64655
1104.3812 1256.57219
1104.5405 1242.11353
1104.6997 1249.19950
1104.8590 1244.89876
1105.0183 1261.77403
1105.1775 1241.33530
1105.3367 1261.03676
1105.4959 1256.38787
1105.6551 1260.81148
1105.8143 1243.79286
1105.9735 1260.66812
1106.1326 1246.88529
1106.2917 1260.17661
1106.4508 1243.58806
1106.6099 1259.74654
1106.7690 1246.18898
1106.9281 1256.75650
1107.0872 1249.95725
1107.2462 1262.26554
1107.4052 1250.69452
1107.5642 1252.35337
1107.7232 1250.14156
1107.8822 1251.24747
1108.0412 1250.05965
1108.2001 1250.18252
1108.3591 1247.52016
1108.5180 1253.47975
1108.6769 1252.39433
1108.8358 1254.33990
1108.9947 1244.61205
1109.1535 1255.75300
1109.3124 1254.68805
1109.4712 1255.50724
1109.6300 1253.17256
1109.7888 1256.98178
1109.9476 1242.27736
1110.1064 1255.20005
1110.2651 1252.25097
1110.4239 1258.57920
1110.5826 1240.90522
1110.7413 1261.61019
1110.9000 1245.94323
1111.0587 1259.58270
1111.2173 1247.06961
1111.3760 1252.51721
1111.5346 1250.87883
1111.6932 1251.14507
1111.8518 1250.26444
1112.0104 1250.53068
1112.1690 1251.82090
1112.3276 1246.88529
1112.4861 1244.79637
1112.6446 1253.95079
1112.8032 1261.40539
1112.9617 1261.71259
1113.1201 1247.25393
1113.2786 1256.34691
1113.4371 1244.05910
1113.5955 1251.92330
1113.7539 1240.12700
1113.9123 1253.11112
1114.0707 1250.71500
1114.2291 1258.33344
1114.3875 1244.40725
1114.5458 1250.51020
1114.7042 1237.52608
1114.8625 1250.53068
1115.0208 1246.51666
1115.1791 1256.75650
1115.3374 1250.34636
1115.4956 1257.63713
1115.6539 1248.11408
1115.8121 1249.67053
1115.9703 1241.66297
1116.1285 1246.51666
1116.2867 1245.02164
1116.4449 1246.72146
1116.6030 1251.98474
1116.7612 1258.76351
1116.9193 1246.27090
1117.0774 1256.92034
1117.2355 1244.73493
1117.3936 1254.70853
1117.5516 1248.05264
1117.7097 1251.88234
1117.8677 1250.10060
1118.0257 1252.90632
1118.1837 1250.65356
1118.3417 1266.03380
1118.4997 1259.41886
1118.6577 1245.24692
1118.8156 1244.69397
1118.9735 1253.74599
1119.1315 1244.83732
1119.2894 1256.73602
1119.4472 1248.42127
1119.6051 1254.11462
1119.7630 1243.21943
1119.9208 1254.89285
1120.0786 1247.54064
1120.2364 1253.74599
1120.3942 1246.41426
1120.5520 1253.54119
1120.7098 1246.80337
1120.8675 1254.74949
1121.0253 1249.03566
1121.1830 1261.34395
1121.3407 1252.74248
1121.4984 1251.16555
1121.6560 1253.39783
