# Averages = 100
# wavelength [µm]	intensity
446.8250 14.33578
447.0374 36746.70328
447.2498 1234.22885
447.4621 1221.36760
447.6745 1232.69287
447.8868 1246.35282
448.0992 1240.86427
448.3115 1226.28273
448.5238 1240.41371
448.7360 1240.14748
448.9483 1244.91924
449.1606 1238.18143
449.3728 1267.54930
449.5850 1232.77479
449.7972 1243.64950
450.0094 1243.56758
450.2216 1254.58566
450.4337 1250.77643
450.6459 1725.37271
450.8580 2084.81171
451.0701 2122.71961
451.2822 2148.66737
451.4943 2136.01093
451.7064 2113.50375
451.9184 2098.18494
452.1305 2205.08891
452.3425 2304.72259
452.5545 2205.55995
452.7665 2211.97009
452.9785 2303.08422
453.1905 2350.06462
453.4024 2306.32001
453.6143 2408.96420
453.8263 2399.07251
454.0382 2604.91385
454.2501 2389.93857
454.4619 2365.83398
454.6738 2500.03737
454.8856 2630.77970
455.0975 2425.51179
455.3093 2415.04667
455.5211 2497.70269
455.7329 2474.17153
455.9446 2518.51005
456.1564 2529.63052
456.3681 2615.46089
456.5798 2738.23662
456.7916 2639.31973
457.0033 2625.06586
457.2149 2594.57161
457.4266 2633.31918
457.6382 2681.32357
457.8499 2652.42673
458.0615 2758.32719
458.2731 2668.11417
458.4847 2787.12163
458.6963 2878.37912
458.9078 2904.32688
459.1194 3077.68744
459.3309 3088.60311
459.5424 2932.15878
459.7539 2830.08802
459.9654 2856.46585
460.1769 2908.05419
460.3883 2879.44406
460.5998 2754.23125
460.8112 2730.33146
461.0226 2777.76241
461.2340 2875.28669
461.4454 2852.08320
461.6567 2818.23028
461.8681 2836.39576
462.0794 2790.43934
462.2907 2920.17816
462.5020 3153.91283
462.7133 3257.37622
462.9246 3025.46423
463.1359 2900.02615
463.3471 2776.57459
463.5583 2838.21845
463.7696 3226.12421
463.9808 3059.91107
464.1919 2997.77570
464.4031 2983.13272
464.6143 3009.46960
464.8254 2923.45491
465.0365 2876.02395
465.2476 3154.17907
465.4587 3313.92063
465.6698 2899.51416
465.8809 2976.19011
466.0919 2953.08902
466.3030 3014.61000
466.5140 3042.25758
466.7250 2977.23457
466.9360 3090.40532
467.1469 3035.62216
467.3579 2843.97324
467.5688 2834.57307
467.7798 3069.70036
467.9907 3176.87056
468.2016 3067.87767
468.4125 3033.67659
468.6233 2875.02045
468.8342 2912.08868
469.0450 3090.67156
469.2559 3186.31170
469.4667 3139.06506
469.6775 2890.29830
469.8882 3060.66882
470.0990 3014.56904
470.3098 3304.25422
470.5205 3128.10843
470.7312 3196.96114
470.9419 3410.09325
471.1526 3309.25126
471.3633 3038.32548
471.5739 3059.09188
471.7846 3040.66016
471.9952 2974.69509
472.2058 3077.15497
472.4164 3066.87416
472.6270 3045.14521
472.8376 3174.24916
473.0481 3355.08480
473.2587 3438.12994
473.4692 3342.05972
473.6797 3234.74616
473.8902 2991.95947
474.1007 2974.81797
474.3111 3004.94359
474.5216 2927.46893
474.7320 3054.54539
474.9424 3198.96815
475.1528 3273.67805
475.3632 3144.75841
475.5736 3094.95181
475.7840 3096.75403
475.9943 3150.71800
476.2046 3159.44235
476.4149 3225.46886
476.6252 3260.14097
476.8355 3363.95251
477.0458 3436.79876
477.2561 3424.69526
477.4663 3271.32288
477.6765 3289.26309
477.8867 3305.72876
478.0969 3293.48190
478.3071 3277.44631
478.5173 3380.99161
478.7274 3353.20067
478.9375 3405.15764
479.1477 3374.92962
479.3578 3511.61106
479.5679 3456.27494
479.7779 3493.62989
479.9880 3489.18580
480.1980 3536.90347
480.4081 3547.34811
480.6181 3420.88604
480.8281 3535.46989
481.0381 3469.50482
481.2480 3473.55980
481.4580 3553.96305
481.6679 3504.05405
481.8778 3463.48379
482.0877 3480.19522
482.2976 3386.00913
482.5075 3463.34043
482.7174 3549.88759
482.9272 3611.38809
483.1371 3473.88747
483.3469 3536.26860
483.5567 3658.67569
483.7665 3544.27616
483.9762 3599.61227
484.1860 3727.01641
484.3957 3730.00644
484.6055 3593.01781
484.8152 3661.17421
485.0249 3772.31748
485.2346 3759.72247
485.4442 3760.86933
485.6539 3788.43499
485.8635 3776.59773
486.0732 3650.15614
486.2828 3682.98508
486.4924 3682.24781
486.7019 3798.87963
486.9115 3747.27082
487.1210 3761.54516
487.3306 3894.82697
487.5401 3868.65393
487.7496 3913.97548
487.9591 3959.09223
488.1686 3901.33951
488.3780 3860.09342
488.5875 3964.25311
488.7969 4053.44215
489.0063 4012.78997
489.2157 4074.39287
489.4251 4002.09957
489.6345 3996.07854
489.8438 4094.81112
490.0531 3917.64134
490.2625 3985.65438
490.4718 4093.15226
490.6811 4149.04133
490.8903 4159.42453
491.0996 4187.76842
491.3089 4199.13465
491.5181 4240.01210
491.7273 4253.24198
491.9365 4218.87706
492.1457 4295.88069
492.3549 4328.66867
492.5640 4236.22336
492.7732 4314.72200
492.9823 4359.51108
493.1914 4486.71042
493.4005 4462.58535
493.6096 4429.83833
493.8187 4383.32895
494.0277 4476.14290
494.2368 4481.36522
494.4458 4514.80855
494.6548 4578.90997
494.8638 4632.97635
495.0728 4605.43117
495.2817 4609.75238
495.4907 4634.98335
495.6996 4669.34827
495.9085 4684.54420
496.1174 4744.14009
496.3263 4748.52274
496.5352 4761.85502
496.7440 4862.22597
496.9529 4891.59384
497.1617 4844.63392
497.3705 4884.91746
497.5793 4989.79394
497.7881 4884.91746
497.9969 4967.49156
498.2056 5033.29280
498.4144 5059.19960
498.6231 5123.38294
498.8318 5125.73811
499.0405 5144.23126
499.2492 5126.31154
499.4578 5191.66222
499.6665 5186.56278
499.8751 5310.93592
500.0837 5309.01083
500.2923 5339.58700
500.5009 5349.94973
500.7095 5456.97657
500.9180 5415.66904
501.1266 5486.75404
501.3351 5497.44443
501.5436 5587.69842
501.7521 5570.90507
501.9606 5652.16847
502.1691 5703.92064
502.3775 5657.49319
502.5860 5716.53613
502.7944 5747.72670
503.0028 5815.35062
503.2112 5830.42367
503.4196 5874.51644
503.6279 5918.19961
503.8363 5880.27123
504.0446 6028.60561
504.2529 6004.39862
504.4612 6060.49248
504.6695 6148.10459
504.8778 6151.48373
505.0860 6167.45789
505.2943 6160.47432
505.5025 6279.54322
505.7107 6273.29692
505.9189 6354.72415
506.1271 6406.25105
506.3353 6403.36341
506.5434 6368.34315
506.7516 6500.86720
506.9597 6528.74006
507.1678 6598.63723
507.3759 6581.98725
507.5840 6637.63056
507.7920 6695.28088
508.0001 6715.98584
508.2081 6817.64701
508.4161 6788.54537
508.6241 6984.06495
508.8321 6946.64856
509.0401 6929.91666
509.2480 7050.05050
509.4560 7046.85567
509.6639 7133.91482
509.8718 7146.44839
510.0797 7276.57633
510.2876 7280.71322
510.4955 7372.70798
510.7033 7418.11145
510.9112 7452.82452
511.1190 7577.83253
511.3268 7527.51394
511.5346 7597.22679
511.7424 7645.33358
511.9501 7753.60969
512.1579 7792.84877
512.3656 7829.26165
512.5733 7815.23307
512.7810 7947.75713
512.9887 8013.64028
513.1964 8010.09729
513.4040 8071.39300
513.6117 8140.45050
513.8193 8229.16851
514.0269 8247.35447
514.2345 8376.00787
514.4421 8323.00644
514.6497 8323.47747
514.8572 8498.88600
515.0647 8553.64868
515.2723 8610.70509
515.4798 8677.46887
515.6873 8760.32969
515.8947 8806.38850
516.1022 8781.89480
516.3097 8867.41797
516.5171 8997.30015
516.7245 9046.49236
516.9319 9114.95595
517.1393 9151.88083
517.3467 9144.61054
517.5540 9182.86660
517.7614 9399.70553
517.9687 9445.14996
518.1760 9477.24163
518.3833 9583.08065
518.5906 9607.32860
518.7978 9794.18527
519.0051 9733.77019
519.2123 9907.72466
519.4196 9735.73624
519.6268 9903.91544
519.8340 9947.84437
520.0411 10035.70222
520.2483 10247.40075
520.4554 10209.65669
520.6626 10476.75278
520.8697 10404.45948
521.0768 10620.23347
521.2839 10580.56431
521.4909 10584.33257
521.6980 10739.87580
521.9050 10914.83377
522.1121 10838.91557
522.3191 11080.04341
522.5261 11062.65615
522.7331 11105.56110
522.9400 11305.60669
523.1470 11334.50353
523.3539 11456.80822
523.5608 11447.79716
523.7677 11483.16558
523.9746 11617.92192
524.1815 11889.19586
524.3884 11797.54926
524.5952 11797.28303
524.8020 12097.88388
525.0089 12015.35074
525.2157 12143.92222
525.4225 12238.70221
525.6292 12255.20884
525.8360 12338.66356
526.0427 12423.10132
526.2494 12618.64137
526.4562 12577.98919
526.6629 12692.40921
526.8695 12714.91638
527.0762 12957.41636
527.2829 13041.28068
527.4895 13154.73815
527.6961 13278.06683
527.9027 13368.66897
528.1093 13451.42738
528.3159 13499.75945
528.5224 13455.35948
528.7290 13838.22724
528.9355 13668.96262
529.1420 14036.36822
529.3485 13927.76444
529.5550 14140.56887
529.7615 14099.91669
529.9680 14248.55826
530.1744 14263.71323
530.3808 14459.72432
530.5872 14415.83635
530.7936 14573.20227
531.0000 14627.18672
531.2064 14805.93344
531.4127 14878.08338
531.6191 15020.29432
531.8254 15119.35457
532.0317 15309.63135
532.2380 15256.46608
532.4443 15377.93111
532.6505 15241.08584
532.8568 15519.79390
533.0630 15834.09567
533.2692 15766.14406
533.4754 15900.26554
533.6816 16116.08048
533.8878 15986.36214
534.0939 16340.59930
534.3001 16347.29616
534.5062 16471.56690
534.7123 16357.14689
534.9184 16483.24032
535.1245 16651.89055
535.3306 16663.56397
535.5366 17025.87012
535.7426 17046.86180
535.9487 17110.79939
536.1547 17082.02542
536.3607 17374.25009
536.5666 17279.65441
536.7726 17404.84674
536.9785 17620.49785
537.1845 17804.97887
537.3904 17671.24651
537.5963 17723.28540
537.8022 17955.23834
538.0080 18114.97990
538.2139 18194.78925
538.4197 18315.45556
538.6256 18289.83547
538.8314 18362.82508
539.0372 18512.08104
539.2430 18888.23146
539.4487 18712.43383
539.6545 18997.90019
539.8602 18923.80468
540.0659 19097.75915
540.2716 19533.03442
540.4773 19576.86096
540.6830 19685.75145
540.8887 19814.50725
541.0943 19597.50448
541.2999 19700.27155
541.5056 19744.46672
541.7112 19996.85839
541.9167 19911.31473
542.1223 19919.26085
542.3279 20337.70183
542.5334 20413.57907
542.7389 20596.48316
542.9444 20684.34102
543.1499 20779.69444
543.3554 20762.55294
543.5609 21088.28237
543.7663 21116.60578
543.9718 20982.70958
544.1772 21145.72790
544.3826 21125.67828
544.5880 21771.19803
544.7934 21603.26460
544.9987 21637.62951
545.2041 22033.68619
545.4094 21997.86721
545.6147 21992.50154
545.8200 22280.56882
546.0253 22265.47529
546.2306 22586.28960
546.4358 22363.04052
546.6411 22728.80774
546.8463 22582.60325
547.0515 22867.76242
547.2567 23068.46336
547.4619 23104.77384
547.6670 23219.62393
547.8722 23325.03288
548.0773 23625.28558
548.2824 23604.56014
548.4876 23767.12790
548.6926 23825.00349
548.8977 23933.27960
549.1028 24037.45977
549.3078 24246.55738
549.5129 24283.29794
549.7179 24357.57777
549.9229 24520.57560
550.1279 24442.87567
550.3328 24776.36690
550.5378 24481.70515
550.7427 24876.65593
550.9476 25059.15042
551.1526 24502.14388
551.3575 25113.87215
551.5623 25180.45161
551.7672 25081.80096
551.9720 25187.66046
552.1769 25293.54045
552.3817 25505.03418
552.5865 25337.63321
552.7913 25596.10735
552.9961 25449.55470
553.2008 25699.79601
553.4056 25974.28526
553.6103 25906.80469
553.8150 26157.02551
554.0197 26212.40258
554.2244 26166.89672
554.4291 26185.88139
554.6337 26600.94322
554.8384 26417.60905
555.0430 26635.61533
555.2476 26421.35684
555.4522 26431.76052
555.6568 26766.62389
555.8613 26932.61175
556.0659 27012.31870
556.2704 26736.90786
556.4750 27104.94832
556.6795 27285.57917
556.8839 26977.13460
557.0884 27498.62936
557.2929 27408.04770
557.4973 27215.80487
557.7018 27316.81069
557.9062 27484.80557
558.1106 27532.33892
558.3150 27341.22248
558.5193 27723.14817
558.7237 27841.82796
558.9280 27555.74721
559.1323 27792.30808
559.3367 27676.67976
559.5410 27888.70597
559.7452 27637.64548
559.9495 27977.66973
560.1537 27964.41937
560.3580 27868.84067
560.5622 28143.92383
560.7664 28334.38492
560.9706 28304.93513
561.1748 28422.30422
561.3789 28409.89353
561.5831 28446.90033
561.7872 28304.56650
561.9913 28632.54870
562.1954 28549.87220
562.3995 28693.63960
562.6036 28728.74179
562.8076 28517.92388
563.0117 28804.55759
563.2157 28689.03167
563.4197 28907.50898
563.6237 29082.40551
563.8277 28798.51608
564.0316 28584.97438
564.2356 29045.52159
564.4395 28981.29729
564.6434 29164.50858
564.8473 29340.94109
565.0512 29327.99792
565.2551 29281.65239
565.4590 29344.52503
565.6628 29548.83039
565.8666 29778.18241
566.0705 29545.30789
566.2743 29555.07670
566.4780 29637.32312
566.6818 29546.65955
566.8856 30077.53401
567.0893 29656.84027
567.2930 29857.33641
567.4967 29568.47041
567.7004 29818.91651
567.9041 29977.36785
568.1078 29981.03372
568.3114 30200.67837
568.5151 30082.38769
568.7187 29734.76548
568.9223 29980.03021
569.1259 30116.54781
569.3295 30469.59714
569.5330 30429.49792
569.7366 30432.85658
569.9401 30536.77052
570.1436 30580.67897
570.3471 30679.10435
570.5506 30644.94423
570.7541 30636.67043
570.9575 30663.47835
571.1609 30377.23375
571.3644 30852.99737
571.5678 30841.48779
571.7712 31213.46035
571.9746 31072.10955
572.1779 30879.02706
572.3813 30723.11520
572.5846 30962.23603
572.7879 30880.35824
572.9912 31472.87655
573.1945 31317.08757
573.3978 30924.04141
573.6010 31256.09906
573.8043 31815.17405
574.0075 31039.23965
574.2107 31188.27034
574.4139 31165.02589
574.6171 31270.41436
574.8203 31087.03924
575.0234 31539.78369
575.2266 31013.25093
575.4297 31168.75320
575.6328 31322.90380
575.8359 31615.64046
576.0390 30996.64190
576.2420 31085.03223
576.4451 30792.11126
576.6481 31225.76865
576.8512 31680.78634
577.0542 31018.73948
577.2571 31495.07654
577.4601 31453.83045
577.6631 31323.74347
577.8660 31210.83895
578.0689 31118.10693
578.2719 31298.16434
578.4748 31119.37667
578.6776 31071.72044
578.8805 31147.43384
579.0834 30697.00359
579.2862 31132.58607
579.4890 31502.44922
579.6918 31313.46267
579.8946 30990.70279
580.0974 31406.17421
580.3002 31108.25620
580.5029 30956.97275
580.7057 31348.48293
580.9084 30892.83037
581.1111 31440.10905
581.3138 31207.33693
581.5164 30956.76795
581.7191 30831.18651
581.9217 30934.34269
582.1244 31001.94614
582.3270 31012.00167
582.5296 30934.19933
582.7322 31202.50372
582.9347 31041.98393
583.1373 30794.24115
583.3398 31055.02949
583.5424 30826.88577
583.7449 30785.74208
583.9474 30602.87895
584.1498 30534.92735
584.3523 30983.30962
584.5548 30548.85353
584.7572 30718.17959
584.9596 30874.74680
585.1620 31453.27749
585.3644 30604.12821
585.5668 30665.42392
585.7691 31057.56897
585.9715 30868.17282
586.1738 31125.76633
586.3761 31109.15730
586.5784 31324.97225
586.7807 31168.71224
586.9830 31107.21173
587.1852 31083.35290
587.3875 30825.67747
587.5897 31337.85397
587.7919 31061.29628
587.9941 30720.28900
588.1963 30876.79477
588.3984 31278.23760
588.6006 30745.19230
588.8027 31256.61105
589.0048 30927.25672
589.2069 31093.42890
589.4090 31067.35826
589.6111 31285.22118
589.8131 31211.61718
590.0152 31328.72003
590.2172 31256.95921
590.4192 31622.66499
590.6212 31324.21450
590.8232 31095.27208
591.0252 31494.91270
591.2271 31555.69641
591.4291 31580.90691
591.6310 31391.38788
591.8329 31413.13731
592.0348 31734.36120
592.2367 31745.74791
592.4385 32093.98452
592.6404 32122.63560
592.8422 32229.43717
593.0440 32336.73025
593.2458 32535.05555
593.4476 32718.38971
593.6494 32699.83511
593.8512 32927.07773
594.0529 33236.42340
594.2546 33172.21958
594.4563 33090.62851
594.6580 32792.97673
594.8597 32788.16400
595.0614 32878.39751
595.2630 33148.01259
595.4647 33098.30839
595.6663 32760.20923
595.8679 33124.11280
596.0695 33605.81553
596.2711 33445.86917
596.4727 33468.94978
596.6742 33769.01816
596.8757 33923.18925
597.0773 33846.47234
597.2788 33517.91671
597.4802 33892.98171
597.6817 34302.43210
597.8832 33987.55690
598.0846 34318.52913
598.2860 34322.27692
598.4875 33998.80025
598.6889 34566.00568
598.8902 34585.58426
599.0916 34676.14544
599.2930 34296.59539
599.4943 34812.08960
599.6956 34856.26429
599.8969 34634.89935
600.0982 34343.12524
600.2995 34519.78302
600.5008 35249.51525
600.7020 34643.27554
600.9032 35140.46091
601.1045 34944.67510
601.3057 34600.86210
601.5068 35266.80010
601.7080 35277.20378
601.9092 35134.91092
602.1103 35708.66984
602.3115 35571.02586
602.5126 35829.72527
602.7137 35733.88034
602.9147 35706.68331
603.1158 35867.46934
603.3169 36070.21824
603.5179 35942.56835
603.7189 35787.45520
603.9199 36001.30410
604.1209 36013.36663
604.3219 36045.49926
604.5229 36106.79497
604.7238 36260.92509
604.9247 36278.31235
605.1257 36461.38028
605.3266 36712.70700
605.5275 36295.65864
605.7283 36477.57971
605.9292 36601.31798
606.1300 36058.97490
606.3309 36275.11752
606.5317 36606.15119
606.7325 36729.47986
606.9332 36785.90140
607.1340 37025.26799
607.3348 36899.01072
607.5355 36375.93902
607.7362 37292.17976
607.9369 36606.41742
608.1376 36908.18562
608.3383 36699.90720
608.5390 37492.43014
608.7396 37104.91350
608.9402 37673.77777
609.1409 37652.21266
609.3415 37299.57293
609.5421 37169.87506
609.7426 37518.43935
609.9432 37111.24172
610.1437 37000.91764
610.3443 37805.93320
610.5448 37590.93744
610.7453 37915.41761
610.9457 37546.06644
611.1462 37739.35373
611.3467 37661.96100
611.5471 38058.73446
611.7475 37564.68248
611.9479 38305.04366
612.1483 37703.59620
612.3487 38279.40309
612.5491 38142.49638
612.7494 38701.53041
612.9497 38059.28741
613.1501 38483.76990
613.3504 38269.90052
613.5506 38891.99151
613.7509 38522.47650
613.9512 38451.20719
614.1514 38627.82402
614.3516 39004.67075
614.5519 38897.41862
614.7521 39020.48107
614.9522 38686.41640
615.1524 38765.18128
615.3526 39176.00381
615.5527 39774.46124
615.7528 39331.19888
615.9529 39368.06232
616.1530 39734.89448
616.3531 39732.21165
616.5532 39631.63590
616.7532 39163.65456
616.9532 39525.44872
617.1533 39325.32121
617.3533 39719.26848
617.5532 39459.58605
617.7532 39645.45969
617.9532 38866.59669
618.1531 39839.38185
618.3530 39284.13656
618.5530 39582.89424
618.7528 39761.98911
618.9527 39811.85715
619.1526 39460.58955
619.3524 39510.04800
619.5523 39709.64303
619.7521 39834.15953
619.9519 39885.97314
620.1517 39853.98387
620.3515 40186.36920
620.5512 40485.74127
620.7510 40232.34609
620.9507 39931.35613
621.1504 39976.67767
621.3501 40097.61023
621.5498 40345.02533
621.7495 40415.14778
621.9492 40059.39513
622.1488 39830.08407
622.3484 39934.44856
622.5480 39888.63550
622.7476 40616.64743
622.9472 39881.32425
623.1468 40151.69708
623.3463 41209.88254
623.5459 40908.97449
623.7454 40647.75607
623.9449 40649.96788
624.1444 40608.18932
624.3439 41045.79928
624.5433 40819.37586
624.7428 40644.21309
624.9422 40692.99570
625.1416 40855.68634
625.3410 40823.28748
625.5404 40723.05989
625.7398 40755.84787
625.9391 40935.65952
626.1385 40482.91507
626.3378 40549.88365
626.5371 41270.62529
626.7364 40611.87566
626.9357 41009.57071
627.1350 40965.53939
627.3342 40599.97696
627.5335 40449.55366
627.7327 40689.12504
627.9319 40698.25898
628.1311 41733.75294
628.3303 40903.40401
628.5294 41137.09773
628.7286 41308.20552
628.9277 41743.17360
629.1268 41411.81226
629.3259 42074.08439
629.5250 41999.64073
629.7241 41911.49615
629.9231 41184.87684
630.1222 41925.79097
630.3212 41778.27578
630.5202 41408.10543
630.7192 41963.43264
630.9182 41367.45325
631.1171 41632.39897
631.3161 41428.38032
631.5150 41280.10739
631.7140 41513.08431
631.9129 41718.31126
632.1118 42150.57602
632.3106 41949.73173
632.5095 41731.56162
632.7083 41638.85007
632.9072 41728.85830
633.1060 41839.69437
633.3048 41905.00409
633.5036 41325.06030
633.7023 41710.16034
633.9011 42161.08210
634.0998 41977.60458
634.2986 42156.08506
634.4973 41935.84650
634.6960 42028.61948
634.8947 41859.76446
635.0933 42173.98431
635.2920 41889.68528
635.4906 41536.82027
635.6892 42294.50727
635.8878 42374.64428
636.0864 42420.55974
636.2850 42076.11188
636.4836 42108.69506
636.6821 42163.62158
636.8806 42359.71459
637.0792 42315.96998
637.2777 42264.01301
637.4761 42359.73507
637.6746 42090.24286
637.8731 42459.30731
638.0715 41943.73118
638.2699 42696.60545
638.4683 42348.28693
638.6667 41538.56104
638.8651 42339.64450
639.0635 42584.35628
639.2618 42634.42912
639.4602 42534.11961
639.6585 42372.08432
639.8568 42541.49230
640.0551 42583.49614
640.2534 42549.58177
640.4516 42258.66781
640.6499 42479.68460
640.8481 43239.99300
641.0463 42983.44395
641.2445 43214.59819
641.4427 43024.62861
641.6409 42782.47678
641.8390 43064.56400
642.0372 43383.57609
642.2353 43208.94579
642.4334 42618.02489
642.6315 42859.41897
642.8296 42915.53331
643.0277 42687.34863
643.2257 43370.61245
643.4237 43426.99303
643.6218 43353.71670
643.8198 43062.82322
644.0178 43193.85226
644.2157 43141.69050
644.4137 43032.26753
644.6116 43732.98004
644.8096 44046.79029
645.0075 43006.09449
645.2054 43626.32182
645.4033 43468.36200
645.6011 43433.54653
645.7990 43409.31906
645.9968 43617.98659
646.1947 43475.59133
646.3925 43685.71292
646.5903 43503.99665
646.7881 43658.16774
646.9858 43505.02064
647.1836 43348.59678
647.3813 43092.00678
647.5790 43545.11986
647.7767 44167.14941
647.9744 43252.11697
648.1721 43310.81176
648.3698 44071.34543
648.5674 43246.64890
648.7650 43644.15963
648.9627 43348.74014
649.1603 44099.34117
649.3578 43704.69759
649.5554 43848.89507
649.7530 44386.03631
649.9505 43296.43502
650.1480 43910.23173
650.3455 44262.29804
650.5430 43664.04541
650.7405 43823.09066
650.9380 43583.04825
651.1354 43928.95017
651.3329 43579.01375
651.5303 44051.72589
651.7277 44114.51662
651.9251 44204.15621
652.1225 43987.46063
652.3198 43879.83988
652.5172 44062.70301
652.7145 44345.28173
652.9118 44128.21753
653.1091 44164.99905
653.3064 44431.62410
653.5037 44142.18467
653.7009 43848.17828
653.8982 44153.01843
654.0954 44610.35033
654.2926 44723.17293
654.4898 44541.49762
654.6870 44530.31571
654.8841 45208.07049
655.0813 44709.04194
655.2784 44706.11335
655.4755 45092.87225
655.6726 45231.86789
655.8697 44639.47245
656.0668 45018.63338
656.2639 44696.01686
656.4609 44757.41497
656.6579 44777.54650
656.8550 44979.16902
657.0520 44750.16516
657.2490 44191.66360
657.4459 44784.65295
657.6429 45000.69317
657.8398 44805.27600
658.0367 45184.37549
658.2337 44999.32103
658.4305 45169.73251
658.6274 45266.21232
658.8243 45122.69067
659.0211 45512.41913
659.2180 45461.71142
659.4148 45605.08971
659.6116 45877.92011
659.8084 45789.81649
660.0052 46188.08497
660.2019 45872.73875
660.3987 45580.49361
660.5954 45701.85623
660.7921 45744.20823
660.9888 45367.03382
661.1855 45749.79918
661.3822 45951.97466
661.5788 45365.25209
661.7755 45699.33723
661.9721 45287.14256
662.1687 45762.59899
662.3653 45746.76819
662.5619 45898.17452
662.7584 45464.04610
662.9550 45582.60301
663.1515 45907.06270
663.3480 45538.81744
663.5445 46258.76038
663.7410 45607.81351
663.9375 45805.21722
664.1340 45894.24242
664.3304 46215.42536
664.5268 45752.42058
664.7233 46255.62698
664.9197 46158.53279
665.1160 46141.61656
665.3124 45911.11768
665.5088 45995.43255
665.7051 46068.44264
665.9014 46066.45611
666.0977 45818.16038
666.2940 45758.81025
666.4903 46061.86866
666.6866 46160.39644
666.8828 45859.48839
667.0791 45887.60700
667.2753 46110.77415
667.4715 45945.07300
667.6677 46466.38345
667.8639 46691.08658
668.0600 45881.97509
668.2562 46177.49698
668.4523 46056.19579
668.6484 46206.92629
668.8445 45728.21359
669.0406 46853.73626
669.2367 46770.95736
669.4327 46822.60713
669.6287 46620.12446
669.8248 46346.96639
670.0208 46612.13738
670.2168 46466.44489
670.4128 46567.47119
670.6087 46490.97955
670.8047 46403.63369
671.0006 47092.42702
671.1965 46025.16906
671.3924 46733.41809
671.5883 46264.10558
671.7842 46461.52976
671.9801 45816.39913
672.1759 46275.94283
672.3717 46116.69278
672.5675 46885.68457
672.7633 46682.21888
672.9591 46823.85639
673.1549 47278.60785
673.3506 46659.67074
673.5464 46322.63652
673.7421 46821.64459
673.9378 46719.53287
674.1335 46430.33920
674.3292 46728.05242
674.5249 46197.95618
674.7205 45476.66159
674.9161 45866.12381
675.1118 45837.53416
675.3074 45913.59572
675.5030 45865.75517
675.6985 46368.03999
675.8941 46223.53531
676.0896 46279.40390
676.2852 46453.21501
676.4807 46207.33588
676.6762 46431.17887
676.8717 46871.00063
677.0671 46686.97016
677.2626 47186.96125
677.4580 46751.35830
677.6534 46841.14125
677.8489 46357.24719
678.0442 46415.96246
678.2396 45747.77169
678.4350 46053.71775
678.6303 46166.84754
678.8257 45992.56540
679.0210 46366.56545
679.2163 46055.04893
679.4116 46273.95630
679.6069 46016.03512
679.8021 45633.65887
679.9974 45549.30304
680.1926 46039.79156
680.3878 45868.74521
680.5830 45826.55705
680.7782 45989.71872
680.9734 45727.35345
681.1685 45696.22432
681.3636 45734.27558
681.5588 45778.59362
681.7539 45627.76073
681.9490 45652.58211
682.1441 45605.35595
682.3391 45229.88136
682.5342 45957.83185
682.7292 46134.55107
682.9242 46180.44605
683.1192 45837.53416
683.3142 46385.81636
683.5092 46399.31247
683.7041 46577.13760
683.8991 46452.17055
684.0940 46255.09451
684.2889 45650.77989
684.4838 46057.30169
684.6787 45782.73052
684.8736 44889.50895
685.0684 45680.88503
685.2633 45326.07445
685.4581 45456.91917
685.6529 45797.63973
685.8477 46178.72576
686.0425 46110.18024
686.2372 45763.33626
686.4320 45592.41278
686.6267 45701.36472
686.8214 45365.84600
687.0161 45289.33389
687.2108 45469.10459
687.4055 45312.74217
687.6002 45632.24578
687.7948 45605.88842
687.9894 45956.37779
688.1841 45612.54432
688.3787 45681.99094
688.5732 45319.68479
688.7678 45636.97658
688.9624 45327.56947
689.1569 45307.19218
689.3514 45040.75144
689.5459 44664.88774
689.7404 44881.41947
689.9349 44937.94341
690.1294 45007.30811
690.3238 45068.95197
690.5182 45175.03675
690.7127 45299.34846
690.9071 45169.87587
691.1015 44781.58100
691.2958 44998.13321
691.4902 45284.99220
691.6845 46146.63409
691.8789 45334.22536
692.0732 45303.42391
692.2675 45086.54402
692.4618 45249.27562
692.6560 45093.13848
692.8503 45635.23581
693.0445 45611.45889
693.2387 44921.55966
693.4329 45371.37552
693.6271 45340.32831
693.8213 45347.53716
694.0155 45568.55395
694.2096 45251.65126
694.4038 44844.18740
694.5979 44935.50633
694.7920 44905.89270
694.9861 44815.57728
695.1801 44814.12322
695.3742 44710.10689
695.5682 44704.61833
695.7623 44633.88149
695.9563 44391.70919
696.1503 44765.42252
696.3443 44040.46207
696.5382 44634.08629
696.7322 44604.08355
696.9261 44998.25609
697.1201 44390.33705
697.3140 44705.23272
697.5079 44870.25804
697.7017 44145.17471
697.8956 44231.04604
698.0894 43965.36305
698.2833 44503.97883
698.4771 44491.89582
698.6709 44860.77595
698.8647 44178.45420
699.0585 44802.57268
699.2522 43899.84853
699.4460 44327.25961
699.6397 44330.33156
699.8334 44089.69523
700.0271 43976.36064
700.2208 44183.34885
700.4144 44486.03863
700.6081 44264.05929
700.8017 44042.14140
700.9954 44563.67712
701.1890 44366.76493
701.3826 43816.63956
701.5761 43891.57474
701.7697 44008.28848
701.9632 43651.83952
702.1568 43903.53488
702.3503 43757.94478
702.5438 43497.91418
702.7373 43006.09449
702.9308 43804.22887
703.1242 43855.71480
703.3177 43544.13684
703.5111 43810.08606
703.7045 43957.64221
703.8979 44016.93090
704.0913 43876.09209
704.2847 44090.10483
704.4780 44368.91529
704.6713 43343.94789
704.8647 43649.93490
705.0580 43462.03377
705.2513 42931.89658
705.4445 43538.85308
705.6378 43522.73557
705.8311 42706.00563
706.0243 42761.91518
706.2175 43357.93552
706.4107 43160.85949
706.6039 43170.56686
706.7971 43165.61077
706.9902 43356.21523
707.1834 43183.34618
707.3765 42763.06204
707.5696 42772.70797
707.7627 42995.26073
707.9558 43032.55425
708.1489 42550.36000
708.3419 42140.84817
708.5349 42256.88608
708.7280 42230.05769
708.9210 42930.79068
709.1140 42751.94157
709.3069 42521.25837
709.4999 42288.67056
709.6929 42656.77246
709.8858 42237.81949
710.0787 42351.33840
710.2716 41684.90889
710.4645 42340.27937
710.6574 42334.40170
710.8502 42604.34446
711.0431 42120.16369
711.2359 41851.79786
711.4287 41748.70312
711.6215 42024.15491
711.8143 41943.73118
712.0071 41965.41917
712.1998 41719.62196
712.3925 42012.07190
712.5853 42237.65565
712.7780 42257.25472
712.9707 41956.98154
713.1633 41998.35051
713.3560 41955.85515
713.5487 41809.81450
713.7413 42008.30363
713.9339 41831.99400
714.1265 41594.24531
714.3191 41716.01753
714.5117 41204.76262
714.7042 41541.40772
714.8968 41690.17217
715.0893 42239.64218
715.2818 42189.42599
715.4743 42188.07433
715.6668 41746.12267
715.8592 42106.23750
716.0517 41766.93004
716.2441 41936.93192
716.4366 41548.69849
716.6290 41708.72677
716.8214 41812.35398
717.0137 41858.55616
717.2061 41745.11917
717.3984 41642.57738
717.5908 41324.15919
717.7831 41059.84835
717.9754 41592.25878
718.1677 40610.70832
718.3600 41259.75058
718.5522 40904.96047
718.7445 40941.08664
718.9367 40628.23893
719.1289 40817.96276
719.3211 40691.58261
719.5133 40778.70320
719.7054 40683.90272
719.8976 40973.89510
720.0897 40927.69292
720.2818 40840.49041
720.4740 40850.87362
720.6660 40911.63685
720.8581 40855.50202
721.0502 40560.51261
721.2422 40295.77169
721.4343 40571.77643
721.6263 40686.74940
721.8183 40609.11090
722.0103 41006.66260
722.2022 40788.84064
722.3942 41000.35485
722.5861 40680.15494
722.7781 41135.76655
722.9700 40803.11498
723.1619 40634.64907
723.3538 40398.66164
723.5456 40561.90523
723.7375 40253.60401
723.9293 40386.43526
724.1211 40096.21761
724.3129 40114.21926
724.5047 39686.60338
724.6965 39728.93490
724.8883 39973.62620
725.0800 39768.72693
725.2718 40123.12792
725.4635 39725.18711
725.6552 39622.23572
725.8469 39792.34001
726.0385 40193.68044
726.2302 39851.17815
726.4218 39169.18408
726.6135 39275.51461
726.8051 39187.12428
726.9967 39548.30405
727.1882 39735.07880
727.3798 40045.98094
727.5714 39702.82329
727.7629 40045.46895
727.9544 40013.39775
728.1459 39387.27227
728.3374 39228.08366
728.5289 39998.81622
728.7204 39502.26571
728.9118 39988.43302
729.1032 40249.93815
729.2946 39917.69617
729.4860 39186.26414
729.6774 39521.78286
729.8688 39551.15073
730.0602 39258.49599
730.2515 39487.25410
730.4428 39785.97082
730.6341 39514.47161
730.8254 39312.99244
731.0167 39691.43659
731.2080 39730.12272
731.3992 39522.70444
731.5905 39427.98589
731.7817 39496.34708
731.9729 38874.03082
732.1641 39156.24091
732.3553 38634.04984
732.5464 39078.25426
732.7376 38986.17759
732.9287 39086.32326
733.1198 39053.84248
733.3109 39138.21879
733.5020 38872.80204
733.6931 39420.18313
733.8841 39285.36534
734.0752 39568.12839
734.2662 39080.89614
734.4572 38963.36322
734.6482 38516.90603
734.8392 38532.92115
735.0302 38456.96198
735.2211 38284.19534
735.4120 38140.65321
735.6030 38643.01995
735.7939 38465.66585
735.9848 38508.73463
736.1756 38075.26157
736.3665 38340.51448
736.5574 37894.85600
736.7482 37973.10889
736.9390 37807.89925
737.1298 38122.24197
737.3206 38200.26958
737.5114 38487.49720
737.7021 37923.73236
737.8929 37978.08545
738.0836 38132.11318
738.2743 38328.10379
738.4650 38338.71227
738.6557 37974.17383
738.8463 37748.16000
739.0370 37706.48384
739.2276 37478.95451
739.4182 37440.80085
739.6088 37775.09079
739.7994 37464.98736
739.9900 37629.07062
740.1806 37612.01104
740.3711 37698.35340
740.5617 37969.89358
740.7522 37754.63158
740.9427 37721.41353
741.1332 37789.01698
741.3236 37360.00848
741.5141 37628.06711
741.7045 37912.65285
741.8949 37856.82522
742.0854 37688.78939
742.2758 37812.11806
742.4661 37226.68572
742.6565 36741.15329
742.8469 37026.29198
743.0372 37387.55366
743.2275 37012.01763
743.4178 37250.76983
743.6081 37350.21919
743.7984 37298.32366
743.9886 37373.34076
744.1789 37163.48540
744.3691 36937.47157
744.5593 36945.52009
744.7495 36670.15021
744.9397 36898.94928
745.1299 36668.06128
745.3200 36146.32076
745.5102 36438.66830
745.7003 36470.84189
745.8904 36627.69582
746.0805 36690.28174
746.2706 36540.63667
746.4607 36685.36662
746.6507 36667.11922
746.8408 36247.36754
747.0308 36686.10389
747.2208 36255.00646
747.4108 36443.95206
747.6007 36571.66339
747.7907 36973.96637
747.9806 36671.93194
748.1706 36641.45817
748.3605 36304.01436
748.5504 36211.75336
748.7403 36703.14299
748.9302 36179.08826
749.1200 36235.48932
749.3098 36199.91610
749.4997 35820.77565
749.6895 36047.21955
749.8793 35983.24101
750.0691 36448.08896
750.2588 36106.59017
750.4486 35962.84324
750.6383 35995.93842
750.8280 35474.36174
751.0177 35381.28156
751.2074 35476.81930
751.3971 35602.85130
751.5868 35582.74024
751.7764 35376.89890
751.9660 35142.18120
752.1557 35277.03995
752.3453 35391.43948
752.5348 35682.31248
752.7244 35862.24702
752.9140 35927.90490
753.1035 35638.48595
753.2930 35753.97091
753.4825 35331.02440
753.6720 35589.58046
753.8615 35553.94580
754.0510 35237.88278
754.2404 35242.67503
754.4299 35282.87666
754.6193 35149.92253
754.8087 35046.84826
754.9981 35155.53396
755.1875 34891.05928
755.3768 34726.09539
755.5662 34870.21095
755.7555 34896.07680
755.9448 34915.06147
756.1341 34855.62942
756.3234 34425.80174
756.5127 34436.75837
756.7019 34748.23394
756.8912 34897.81757
757.0804 34726.38211
757.2696 34804.38924
757.4588 34480.40058
757.6480 34264.31940
757.8371 33954.99420
758.0263 34034.23011
758.2154 34124.46361
758.4045 33773.87184
758.5936 33628.03599
758.7827 34050.18379
758.9718 34208.20506
759.1609 33929.84514
759.3499 33910.92191
759.5389 33433.58136
759.7280 33776.73900
759.9170 33921.14128
760.1059 33818.70188
760.2949 33719.82595
760.4839 34069.08654
760.6728 33811.73879
760.8617 33778.41833
761.0506 33376.07439
761.2395 33108.75303
761.4284 33436.42803
761.6173 33300.66818
761.8061 33329.44215
761.9950 33277.97669
762.1838 32968.83581
762.3726 33517.11800
762.5614 33075.63738
762.7502 33470.28096
762.9389 32709.50153
763.1277 32896.93163
763.3164 33355.26703
763.5051 33193.14983
763.6938 33429.44446
763.8825 33084.46412
764.0712 33671.16621
764.2598 33220.44925
764.4484 33418.73358
764.6371 33445.43910
764.8257 33239.70015
765.0143 33403.47622
765.2029 32971.19097
765.3914 33060.54385
765.5800 33369.19322
765.7685 32870.02132
765.9570 32918.84489
766.1455 32432.65711
766.3340 32155.99701
766.5225 32427.96726
766.7110 32422.72446
766.8994 32137.62673
767.0878 31858.32475
767.2762 32230.05156
767.4646 32092.24374
767.6530 32086.38655
767.8414 32214.77371
768.0298 31935.26694
768.2181 31796.61945
768.4064 31889.14668
768.5947 31923.61400
768.7830 31862.48213
768.9713 31807.53513
769.1596 31543.81819
769.3478 31455.71458
769.5360 31697.43633
769.7243 31608.39065
769.9125 31323.39532
770.1007 31002.43765
770.2888 31074.40328
770.4770 31199.75944
770.6651 31103.91450
770.8533 30903.86892
771.0414 30720.67811
771.2295 30919.00341
771.4176 31094.04330
771.6056 31217.72013
771.7937 30925.57739
771.9817 30674.57834
772.1698 31226.81311
772.3578 31124.66043
772.5458 30808.41309
772.7337 30340.90279
772.9217 30735.36205
773.1096 30508.83622
773.2976 30773.18803
773.4855 31068.32081
773.6734 30365.58081
773.8613 30419.44239
774.0492 30627.02450
774.2370 30426.22117
774.4249 30480.94289
774.6127 30694.40267
774.8005 30478.30101
774.9883 30551.31110
775.1761 30679.67778
775.3639 30118.30906
775.5516 30241.26911
775.7394 29973.16952
775.9271 30114.33600
776.1148 30125.06736
776.3025 29426.71002
776.4902 29622.78255
776.6778 29527.98207
776.8655 29861.49378
777.0531 30040.07666
777.2407 30078.33271
777.4283 29675.23103
777.6159 29785.90326
777.8035 29522.98503
777.9911 29395.94953
778.1786 29599.80434
778.3661 29129.48831
778.5536 29465.88766
778.7411 29493.41236
778.9286 29778.55105
779.1161 29527.30624
779.3036 29144.19273
779.4910 29212.55393
779.6784 29296.93024
779.8658 29520.24075
780.0532 28931.51117
780.2406 29262.50388
780.4280 29011.40243
780.6153 29122.56618
780.8026 29100.91915
780.9900 29261.99189
781.1773 28710.78110
781.3646 29136.96340
781.5518 28955.08329
781.7391 28798.45464
781.9263 28926.78037
782.1136 28722.37260
782.3008 28421.38264
782.4880 28554.48013
782.6752 28455.31748
782.8623 28421.01400
783.0495 28755.18106
783.2366 28140.19653
783.4237 28287.42500
783.6108 28588.86552
783.7979 28397.89244
783.9850 28438.99517
784.1721 28610.26680
784.3591 28130.28436
784.5462 28040.23517
784.7332 28188.95866
784.9202 28371.61700
785.1072 27916.45594
785.2941 27816.92466
785.4811 27683.56094
785.6681 27874.80026
785.8550 27862.81964
786.0419 27671.66224
786.2288 27521.42325
786.4157 27369.30013
786.6025 27375.21876
786.7894 27557.09887
786.9762 27441.38863
787.1631 26926.75456
787.3499 27239.54083
787.5367 27400.42926
787.7234 27013.42460
787.9102 27334.05459
788.0970 27358.26158
788.2837 27453.71740
788.4704 26897.50957
788.6571 26573.11132
788.8438 26570.42848
789.0305 26519.53646
789.2171 26487.62910
789.4038 26367.86389
789.5904 26598.03510
789.7770 26639.09687
789.9636 26641.08340
790.1502 26699.55291
790.3368 26683.31252
790.5233 26807.13271
790.7099 26518.92207
790.8964 26047.56158
791.0829 26068.67614
791.2694 26000.70405
791.4559 26064.06821
791.6423 26024.84961
791.8288 26111.33533
792.0152 26264.89202
792.2016 26246.19407
792.3880 26488.75549
792.5744 26068.40990
792.7608 25608.96859
792.9471 25632.76599
793.1335 26198.47640
793.3198 25874.73350
793.5061 25890.29806
793.6924 25519.55428
793.8787 25368.80330
794.0650 25342.77361
794.2512 25808.11307
794.4375 25875.24549
794.6237 25917.94564
794.8099 25871.57963
794.9961 25381.15255
795.1823 25382.79092
795.3684 25384.16306
795.5546 25029.65967
795.7407 25044.11833
795.9268 24947.35181
796.1129 25271.87294
796.2990 25326.04171
796.4851 25659.75822
796.6712 25382.58613
796.8572 25326.16459
797.0432 25009.95821
797.2292 25298.88564
797.4152 25289.91554
797.6012 24772.06616
797.7872 24639.17347
797.9731 24655.33194
798.1591 24473.41088
798.3450 24367.61281
798.5309 24584.02167
798.7168 24538.74108
798.9027 24521.04663
799.0885 24748.65788
799.2744 24578.55360
799.4602 24880.66995
799.6460 24821.46317
799.8318 25242.95562
800.0176 24696.25036
800.2034 24796.33459
800.3892 24265.58301
800.5749 24202.32126
800.7606 24129.10637
800.9463 24391.16445
801.1320 24272.25939
801.3177 24304.22818
801.5034 24224.19356
801.6890 24606.40597
801.8747 24034.59262
802.0603 23770.77328
802.2459 23735.50726
802.4315 23853.61362
802.6171 23546.90982
802.8026 23876.71470
802.9882 23728.70800
803.1737 23558.93139
803.3592 23826.45755
803.5447 23699.58589
803.7302 23990.41793
803.9157 23854.14609
804.1012 23929.87997
804.2866 23400.45957
804.4720 23479.73644
804.6574 23376.27306
804.8428 23279.38366
805.0282 23294.02664
805.2136 23085.91205
805.3989 23389.52342
805.5843 23218.68187
805.7696 23142.62031
805.9549 22995.28943
806.1402 22835.36355
806.3255 22778.77818
806.5107 22994.42929
806.6960 23205.14479
806.8812 22738.00312
807.0664 22915.13194
807.2516 22646.86851
807.4368 22477.23526
807.6220 22330.10918
807.8072 22398.16319
807.9923 22538.16233
808.1774 22417.22977
808.3625 22609.55452
808.5476 22629.82941
808.7327 22792.88868
808.9178 22367.13646
809.1028 22340.96342
809.2879 22188.98366
809.4729 22208.72608
809.6579 21989.90062
809.8429 22131.29238
810.0279 22038.39652
810.2128 21834.02971
810.3978 22002.02459
810.5827 22189.45469
810.7676 22310.53060
810.9525 22396.58625
811.1374 22099.13927
811.3223 22076.55017
811.5072 21865.62987
811.6920 21981.34011
811.8768 22028.56627
812.0616 21909.96840
812.2464 21998.60448
812.4312 21770.72700
812.6160 21884.63502
812.8007 21971.77609
812.9855 21986.00948
813.1702 21794.34008
813.3549 21773.49176
813.5396 21387.98212
813.7243 21478.21562
813.9089 21500.88664
814.0936 21591.61165
814.2782 21607.58581
814.4628 21445.75532
814.6474 21503.13940
814.8320 21468.93833
815.0166 21142.84026
815.2012 21285.13313
815.3857 21113.98438
815.5702 21070.77224
815.7547 21112.85800
815.9392 21277.55565
816.1237 21066.55343
816.3082 20852.04918
816.4926 21045.15215
816.6771 21154.57512
816.8615 20802.69313
817.0459 21000.46547
817.2303 20824.54496
817.4147 20974.80442
817.5990 21029.44423
817.7834 20724.13305
817.9677 20758.33413
818.1520 20905.21445
818.3363 20790.61012
818.5206 20569.30661
818.7049 20463.34471
818.8891 20546.53320
819.0734 20634.69825
819.2576 20774.86124
819.4418 20409.93368
819.6260 20325.04538
819.8102 20419.64106
819.9944 20414.80785
820.1785 20175.52318
820.3627 20350.68595
820.5468 20344.97212
820.7309 20057.64210
820.9150 19897.83910
821.0991 19705.65771
821.2831 20033.66039
821.4672 19888.54132
821.6512 19827.98288
821.8352 19816.69858
822.0192 20128.68614
822.2032 19887.35350
822.3872 19929.97173
822.5711 19699.80052
822.7551 19629.14560
822.9390 19658.67731
823.1229 19719.72726
823.3068 19708.34055
823.4907 19485.50107
823.6745 19498.17800
823.8584 19386.15411
824.0422 19501.18851
824.2261 19586.24065
824.4099 19632.15611
824.5937 19719.27670
824.7774 19734.16544
824.9612 19669.16291
825.1449 19339.05082
825.3287 19396.51683
825.5124 19346.77167
825.6961 19568.73052
825.8798 19450.52176
826.0634 19524.92447
826.2471 19382.71352
826.4307 19620.91276
826.6144 19452.28302
826.7980 19521.52484
826.9816 19348.65580
827.1652 19470.26418
827.3487 19357.38015
827.5323 19019.24002
827.7158 18845.30604
827.8993 19137.75598
828.0828 18960.95483
828.2663 18735.80115
828.4498 18914.95746
828.6333 19079.12263
828.8167 18821.09905
829.0001 18941.90873
829.1836 19009.40977
829.3670 18928.71981
829.5504 19185.28933
829.7337 19041.84960
829.9171 18939.38972
830.1004 18970.92844
830.2837 18939.59452
830.4671 18730.18972
830.6504 18613.59885
830.8336 18712.92534
831.0169 18535.61220
831.2002 18904.43090
831.3834 18779.70960
831.5666 18528.05520
831.7498 18541.65371
831.9330 18858.94551
832.1162 18736.08787
832.2993 18648.72152
832.4825 18737.78768
832.6656 18564.20185
832.8487 18138.83874
833.0318 18273.24693
833.2149 18192.20880
833.3980 18205.64348
833.5811 18335.81237
833.7641 18266.61151
833.9471 18119.58783
834.1301 17932.44445
834.3131 17762.60640
834.4961 17975.73851
834.6791 17982.49680
834.8620 18347.75203
835.0450 18220.92133
835.2279 18317.93361
835.4108 18238.69770
835.5937 18268.35228
835.7766 18043.95635
835.9594 18032.07813
836.1423 18038.16060
836.3251 18282.72902
836.5079 18249.59289
836.6907 17784.04863
836.8735 17746.55033
837.0563 17764.08094
837.2390 17848.17053
837.4218 17709.62545
837.6045 18024.43920
837.7872 18027.10156
837.9699 17870.80059
838.1526 17691.37805
838.3352 17639.13436
838.5179 17571.08036
838.7005 17675.73157
838.8831 17791.19604
839.0658 17791.35988
839.2483 17775.63148
839.4309 17820.72775
839.6135 17809.62776
839.7960 17393.68531
839.9786 17461.86219
840.1611 17344.84125
840.3436 17546.68905
840.5261 17333.27023
840.7085 17216.80225
840.8910 17100.68242
841.0734 17103.97965
841.2559 17031.74779
841.4383 17201.05337
841.6207 17396.69582
841.8030 17223.97014
841.9854 17179.46778
842.1678 17000.98730
842.3501 17120.75251
842.5324 17033.20185
842.7147 17202.97846
842.8970 17377.54732
843.0793 17320.67522
843.2615 17247.35794
843.4438 17279.38817
843.6260 17271.07342
843.8082 17180.77848
843.9904 17207.99598
844.1726 17019.07087
844.3548 16949.74712
844.5369 16864.24443
844.7191 16873.25549
844.9012 16750.47976
845.0833 16756.86943
845.2654 17057.14260
845.4475 17199.02588
845.6296 16916.13996
845.8116 16832.99243
845.9936 16766.53584
846.1757 16796.19043
846.3577 16776.32513
846.5397 16766.43344
846.7216 16625.02120
846.9036 16564.29892
847.0855 16338.16222
847.2675 16493.64400
847.4494 16458.88997
847.6313 16721.54197
847.8132 16770.95945
847.9950 16651.19424
848.1769 16595.79668
848.3587 16766.74064
848.5406 16528.33659
848.7224 16504.80543
848.9042 16409.88208
849.0860 16503.96577
849.2677 16312.99268
849.4495 16243.56654
849.6312 16223.31213
849.8129 16293.61890
849.9946 16398.65921
850.1763 16323.82643
850.3580 16163.83912
850.5397 16095.96943
850.7213 15803.60141
850.9029 15872.06501
851.0845 16024.04477
851.2661 16007.51766
851.4477 15979.60385
851.6293 16021.83296
851.8109 15950.66605
851.9924 16099.84009
852.1739 16173.28025
852.3554 16066.27388
852.5369 15924.20629
852.7184 15751.91068
852.8999 15766.18502
853.0813 15751.50109
853.2628 15785.41545
853.4442 15848.98440
853.6256 15819.16598
853.8070 15969.56880
853.9883 15929.63341
854.1697 15781.44239
854.3510 15634.23440
854.5324 15666.53086
854.7137 15668.35356
854.8950 15602.63424
855.0763 15561.63390
855.2575 15609.98645
855.4388 15618.19880
855.6200 15640.99269
855.8013 15653.23955
855.9825 15571.32080
856.1637 15549.10034
856.3449 15412.00931
856.5260 15497.65536
856.7072 15475.27106
856.8883 15658.21611
857.0694 15588.19606
857.2505 15605.97243
857.4316 15582.37983
857.6127 15425.66926
857.7938 15543.83706
857.9748 15553.95402
858.1558 15398.28792
858.3368 15321.89868
858.5178 15284.40038
858.6988 15398.08312
858.8798 15284.91237
859.0607 15444.36721
859.2417 15304.73670
859.4226 15291.24059
859.6035 15356.61175
859.7844 15407.01226
859.9653 15329.88576
860.1462 15133.81323
860.3270 15070.63340
860.5078 15030.71849
860.6887 15056.76865
860.8695 14980.72757
861.0503 15068.74927
861.2310 14833.70389
861.4118 14785.43327
861.5925 14729.46228
861.7733 14651.86475
861.9540 14548.50376
862.1347 14419.29742
862.3154 14359.10761
862.4960 14495.25658
862.6767 14502.77262
862.8573 14427.40737
863.0380 14417.41328
863.2186 14498.00085
863.3992 14430.35645
863.5797 14407.43968
863.7603 14409.73340
863.9409 14347.02460
864.1214 14397.67087
864.3019 14473.75290
864.4824 14427.57121
864.6629 14343.91169
864.8434 14134.87552
865.0238 14249.15217
865.2043 14332.52498
865.3847 13981.19594
865.5651 13892.45745
865.7455 14136.22717
865.9259 14104.50414
866.1063 13981.38026
866.2866 13958.87308
866.4670 13950.64025
866.6473 13850.35122
866.8276 13820.06176
867.0079 13743.59061
867.1882 13702.05780
867.3684 13578.23761
867.5487 13530.43802
867.7289 13518.33452
867.9091 13594.76472
868.0893 13424.08700
868.2695 13222.42352
868.4497 13148.86048
868.6299 13295.88416
868.8100 13321.77048
868.9901 13292.66885
869.1703 13379.85088
869.3504 13409.85362
869.5304 13351.77323
869.7105 13418.53701
869.8906 13344.01142
870.0706 13295.80224
870.2506 13410.59089
870.4306 13397.23813
870.6106 13387.85843
870.7906 13465.06686
870.9706 13317.75646
871.1505 13148.18465
871.3305 13167.41508
871.5104 13029.25911
871.6903 12966.81654
871.8702 13073.65907
872.0500 13061.80133
872.2299 13092.02935
872.4097 12897.45184
872.5896 12974.12779
872.7694 12984.18331
872.9492 12889.69004
873.1290 12620.01351
873.3087 12658.04429
873.4885 12938.43169
873.6682 12897.94335
873.8480 12762.94125
874.0277 12796.65082
874.2074 12559.57795
874.3870 12681.20682
874.5667 12719.89295
874.7463 12814.34527
874.9260 12644.28194
875.1056 12599.94342
875.2852 12523.20603
875.4648 12467.97231
875.6444 12403.09266
875.8239 12576.00266
876.0035 12461.56217
876.1830 12468.62766
876.3625 12353.08126
876.5420 12386.95467
876.7215 12413.84450
876.9010 12179.90503
877.0804 12236.34705
877.2599 12178.14377
877.4393 12315.95159
877.6187 12315.97207
877.7981 12340.28146
877.9775 12187.74875
878.1568 12394.18400
878.3362 12278.82192
878.5155 12212.50869
878.6948 12001.71127
878.8741 11993.29411
879.0534 11957.41370
879.2327 11896.60951
879.4119 11832.79480
879.5912 11758.28970
879.7704 11921.45137
879.9496 12029.13357
880.1288 11871.09182
880.3080 11678.68515
880.4872 11832.24185
880.6663 11800.31402
880.8455 11834.69941
881.0246 11857.41139
881.2037 11856.63316
881.3828 11795.15314
881.5619 11698.03846
881.7409 11671.70158
881.9200 11531.49764
882.0990 11675.46984
882.2780 11616.40643
882.4570 11568.75019
882.6360 11554.55777
882.8150 11364.26051
882.9940 11316.19469
883.1729 11329.91608
883.3518 11536.41277
883.5308 11485.33643
883.7096 11495.20763
883.8885 11302.96481
884.0674 11220.34975
884.2463 11181.45882
884.4251 11209.00400
884.6039 11122.53876
884.7827 11185.84148
884.9615 11132.24613
885.1403 11167.10256
885.3191 11204.98998
885.4978 10991.05917
885.6765 11055.50874
885.8553 11171.46473
886.0340 11105.33582
886.2127 11064.92940
886.3913 10963.04295
886.5700 10897.52843
886.7486 10821.52831
886.9273 10745.40532
887.1059 10654.61886
887.2845 10661.11092
887.4630 10753.76103
887.6416 10820.91392
887.8202 10845.71482
887.9987 10772.41802
888.1772 10810.98128
888.3557 10776.04293
888.5342 10660.35317
888.7127 10768.42448
888.8912 10707.10830
889.0696 10678.51866
889.2481 10528.58686
889.4265 10444.02623
889.6049 10387.09270
889.7833 10422.31777
889.9616 10355.49255
890.1400 10336.79459
890.3183 10070.06714
890.4967 10175.41465
890.6750 10367.22741
890.8533 10289.50699
891.0316 10254.97824
891.2098 10171.44159
891.3881 10152.98940
891.5663 10117.76433
891.7445 10105.00549
891.9227 9968.42645
892.1009 9954.70506
892.2791 10152.17021
892.4573 10158.33459
892.6354 10031.40149
892.8136 10060.60552
892.9917 10041.06790
893.1698 9921.50749
893.3479 10064.70146
893.5259 10193.84637
893.7040 10057.77933
893.8820 9957.92037
894.0601 9982.51648
894.2381 10036.64429
894.4161 10038.28267
894.5941 10054.44114
894.7720 10062.34630
894.9500 10075.08466
895.1279 10127.24643
895.3058 10007.25594
895.4838 10012.25298
895.6616 9889.08814
895.8395 9819.82584
896.0174 9765.39083
896.1952 9797.58490
896.3731 9890.52172
896.5509 9811.61348
896.7287 9819.04761
896.9065 9790.60133
897.0842 9778.47735
897.2620 9732.52093
897.4397 9670.38556
897.6175 9691.37724
897.7952 9688.01857
897.9729 9835.53376
898.1506 9800.24726
898.3282 9695.57558
898.5059 9638.90828
898.6835 9643.63909
898.8611 9724.26762
899.0388 9598.33802
899.2163 9432.55495
899.3939 9393.11107
899.5715 9498.90914
899.7490 9479.51487
899.9266 9495.89862
900.1041 9585.45630
900.2816 9566.81978
900.4591 9476.83203
900.6365 9464.17559
900.8140 9347.35945
900.9914 9372.87714
901.1689 9347.03177
901.3463 9312.64638
901.5237 9327.26888
901.7011 9286.45286
901.8784 9271.11357
902.0558 9192.26678
902.2331 9232.12025
902.4104 9327.76039
902.5878 9338.08215
902.7650 9267.40675
902.9423 9204.77986
903.1196 9261.20140
903.2968 9386.53709
903.4741 9369.98950
903.6513 9269.31136
903.8285 9177.31660
904.0057 9186.73726
904.1828 9042.02779
904.3600 8951.09798
904.5371 8984.78706
904.7143 9023.20695
904.8914 9084.23642
905.0685 9171.35701
905.2456 9167.38395
905.4226 9138.09800
905.5997 9189.37914
905.7767 9239.37006
905.9537 9050.48590
906.1307 8991.03337
906.3077 8889.08548
906.4847 8888.73733
906.6617 8869.75266
906.8386 8930.02438
907.0156 8859.88145
907.1925 8755.06641
907.3694 8761.27175
907.5463 8805.34404
907.7231 8835.87925
907.9000 8816.81266
908.0768 8784.49572
908.2537 8647.73236
908.4305 8688.46646
908.6073 8853.90138
908.7841 8816.58739
908.9608 8713.02161
909.1376 8664.56667
909.3143 8659.16003
909.4910 8581.33722
909.6677 8564.46195
909.8444 8599.72798
910.0211 8615.39494
910.1978 8547.44333
910.3744 8574.29220
910.5510 8601.98074
910.7277 8664.32091
910.9043 8559.13724
911.0808 8600.93628
911.2574 8548.83595
911.4340 8480.92531
911.6105 8357.30992
911.7870 8398.65840
911.9636 8410.49566
912.1401 8369.86396
912.3165 8407.60803
912.4930 8369.20861
912.6695 8282.94817
912.8459 8264.76221
913.0223 8305.63966
913.1987 8303.01826
913.3751 8224.64250
913.5515 8146.16434
913.7279 8189.06928
913.9042 8191.21965
914.0805 8137.25567
914.2568 8112.96676
914.4331 8091.09446
914.6094 8091.15590
914.7857 8075.36606
914.9620 8052.38785
915.1382 7993.83642
915.3144 7907.49406
915.4906 8060.55924
915.6668 8109.99721
915.8430 8000.96335
916.0192 7808.47477
916.1953 7916.85328
916.3715 8013.33308
916.5476 7915.99313
916.7237 7942.53480
916.8998 7943.80455
917.0759 7890.86455
917.2519 7841.50851
917.4280 7909.00956
917.6040 7902.98853
917.7800 7880.21512
917.9560 7866.24797
918.1320 7819.41092
918.3080 7785.55800
918.4839 7735.58756
918.6599 7712.99847
918.8358 7753.73257
919.0117 7747.28146
919.1876 7691.61767
919.3635 7675.11105
919.5394 7755.47334
919.7152 7710.27467
919.8911 7623.01072
920.0669 7615.88379
920.2427 7542.87370
920.4185 7479.98058
920.5942 7483.15493
920.7700 7437.05516
920.9458 7511.21211
921.1215 7519.38350
921.2972 7507.09569
921.4729 7506.31746
921.6486 7369.36979
921.8243 7216.22269
921.9999 7235.65791
922.1756 7274.50788
922.3512 7302.60601
922.5268 7219.82711
922.7024 7304.65398
922.8780 7357.55301
923.0535 7371.04912
923.2291 7336.60229
923.4046 7351.24527
923.5801 7478.87468
923.7557 7337.99491
923.9311 7280.30363
924.1066 7257.26398
924.2821 7352.90412
924.4575 7316.92131
924.6330 7276.53537
924.8084 7168.73029
924.9838 7111.81724
925.1592 7108.17186
925.3345 7098.73072
925.5099 7076.83793
925.6852 7065.71746
925.8606 7022.05477
926.0359 6966.14522
926.2112 6968.68470
926.3864 6942.30687
926.5617 6862.82520
926.7370 6885.37334
926.9122 6840.78906
927.0874 6787.35755
927.2626 6790.67526
927.4378 6787.64427
927.6130 6771.95683
927.7882 6739.33268
927.9633 6686.55653
928.1384 6619.36268
928.3135 6522.96479
928.4886 6505.90521
928.6637 6524.72604
928.8388 6538.97990
929.0139 6576.25293
929.1889 6529.04725
929.3639 6506.66295
929.5389 6511.92623
929.7139 6502.42366
929.8889 6506.94967
930.0639 6544.18174
930.2388 6483.02940
930.4138 6423.02391
930.5887 6461.50524
930.7636 6521.96128
930.9385 6469.61520
931.1134 6337.84889
931.2882 6338.75000
931.4631 6269.87681
931.6379 6245.50598
931.8127 6225.78404
931.9875 6240.89805
932.1623 6239.48495
932.3371 6222.91688
932.5118 6243.35561
932.6866 6198.32078
932.8613 6177.82061
933.0360 6173.02837
933.2107 6102.51680
933.3854 6057.19525
933.5600 6086.60408
933.7347 5975.13315
933.9093 5969.72651
934.0839 5984.86100
934.2586 6027.60210
934.4331 6003.90711
934.6077 5958.72892
934.7823 5926.12525
934.9568 5932.90403
935.1314 5894.44318
935.3059 5876.93304
935.4804 5835.46168
935.6549 5857.08823
935.8293 5856.88343
936.0038 5800.11374
936.1782 5852.72605
936.3526 5865.38250
936.5271 5779.18350
936.7015 5726.73502
936.8758 5762.94310
937.0502 5759.23628
937.2246 5736.97486
937.3989 5808.30561
937.5732 5732.16213
937.7475 5674.14318
937.9218 5655.77290
938.0961 5618.78658
938.2703 5635.68233
938.4446 5608.91537
938.6188 5631.09487
938.7930 5581.16540
938.9672 5546.75952
939.1414 5563.67574
939.3156 5514.97505
939.4897 5425.21258
939.6639 5410.59008
939.8380 5460.39668
940.0121 5444.95500
940.1862 5495.86750
940.3603 5487.04075
940.5344 5500.74166
940.7084 5513.33667
940.8824 5499.26713
941.0565 5502.25716
941.2305 5437.93046
941.4045 5353.18552
941.5784 5329.90011
941.7524 5349.19198
941.9263 5421.91535
942.1003 5418.67956
942.2742 5377.61778
942.4481 5285.02912
942.6220 5291.93077
942.7958 5292.34036
942.9697 5324.47299
943.1435 5328.30270
943.3174 5308.92891
943.4912 5289.63705
943.6650 5244.31550
943.8387 5202.45502
944.0125 5159.95966
944.1863 5172.30892
944.3600 5166.65652
944.5337 5146.95506
944.7074 5163.85080
944.8811 5154.79878
945.0548 5088.89515
945.2284 5045.04814
945.4021 5013.87805
945.5757 5066.14222
945.7493 5013.26366
945.9229 4903.16486
946.0965 4873.48980
946.2701 4865.62560
946.4436 4886.37152
946.6172 4882.95141
946.7907 4900.70730
946.9642 4892.00343
947.1377 4884.77410
947.3112 4884.36451
947.4847 4907.26080
947.6581 4932.12314
947.8315 4916.82481
948.0050 4835.84813
948.1784 4805.68155
948.3518 4856.86029
948.5251 4826.52987
948.6985 4854.13649
948.8718 4846.55901
949.0452 4777.03047
949.2185 4808.30295
949.3918 4758.98786
949.5651 4765.07033
949.7383 4709.24270
949.9116 4723.23033
950.0848 4725.11446
950.2581 4723.35321
950.4313 4774.69578
950.6045 4762.63325
950.7776 4761.11775
950.9508 4695.88995
951.1239 4670.20842
951.2971 4606.33227
951.4702 4617.71898
951.6433 4601.35571
951.8164 4576.20665
951.9895 4618.53817
952.1625 4547.82180
952.3356 4570.28802
952.5086 4529.43105
952.6816 4577.37399
952.8546 4542.72236
953.0276 4519.80559
953.2006 4531.13086
953.3735 4493.63255
953.5465 4509.72959
953.7194 4487.34529
953.8923 4467.68479
954.0652 4500.84140
954.2381 4451.85399
954.4109 4415.40015
954.5838 4401.31012
954.7566 4377.26697
954.9294 4331.63822
955.1022 4349.27123
955.2750 4363.15646
955.4478 4358.09798
955.6206 4370.93874
955.7933 4379.27398
955.9660 4351.87215
956.1388 4350.15186
956.3115 4306.73492
956.4841 4269.09326
956.6568 4244.62003
956.8295 4232.61893
957.0021 4207.28556
957.1747 4236.77631
957.3473 4210.88999
957.5199 4197.35291
957.6925 4221.10935
957.8651 4212.28260
958.0376 4254.42980
958.2102 4200.75254
958.3827 4234.83074
958.5552 4286.80819
958.7277 4247.44623
958.9001 4189.87783
959.0726 4127.96773
959.2450 4105.15336
959.4175 4116.97014
959.5899 4051.82425
959.7623 4057.21041
959.9347 4009.28794
960.1070 3978.17930
960.2794 4006.50270
960.4517 3976.56140
960.6241 4000.39976
960.7964 4028.37501
960.9687 4029.13276
961.1409 4006.56414
961.3132 3986.26877
961.4855 3936.42121
961.6577 3926.57048
961.8299 3948.42231
962.0021 3937.24040
962.1743 3890.66959
962.3465 3869.32976
962.5186 3875.28935
962.6908 3865.62293
962.8629 3849.75118
963.0350 3854.54342
963.2071 3847.33457
963.3792 3821.71448
963.5513 3797.65085
963.7233 3828.59566
963.8954 3818.72445
964.0674 3809.48811
964.2394 3805.06450
964.4114 3776.67965
964.5834 3764.80143
964.7553 3767.40235
964.9273 3776.04478
965.0992 3740.51252
965.2711 3755.68797
965.4430 3756.58908
965.6149 3735.02397
965.7868 3696.99319
965.9587 3688.37124
966.1305 3718.80405
966.3023 3711.04225
966.4741 3730.33412
966.6459 3689.06755
966.8177 3716.01882
966.9895 3686.20039
967.1613 3671.10686
967.3330 3667.33860
967.5047 3638.68752
967.6764 3635.22645
967.8481 3621.89417
968.0198 3616.69233
968.1915 3585.70657
968.3631 3583.80195
968.5347 3573.13204
968.7064 3579.64458
968.8780 3564.65345
969.0496 3578.74347
969.2211 3553.02098
969.3927 3589.20859
969.5642 3539.29959
969.7358 3503.43966
969.9073 3477.71717
970.0788 3534.09775
970.2503 3540.01638
970.4217 3526.62267
970.5932 3516.50570
970.7646 3498.64741
970.9360 3502.74335
971.1074 3510.93523
971.2788 3534.56879
971.4502 3524.51326
971.6216 3489.65683
971.7929 3443.67993
971.9643 3423.87607
972.1356 3450.78638
972.3069 3454.71848
972.4782 3436.73732
972.6494 3402.24952
972.8207 3401.63513
972.9919 3392.52167
973.1632 3370.15785
973.3344 3336.18205
973.5056 3320.63797
973.6768 3317.68890
973.8479 3372.45158
974.0191 3368.78572
974.1902 3356.76414
974.3614 3313.85919
974.5325 3341.28150
974.7036 3317.32026
974.8746 3310.93060
975.0457 3304.25422
975.2167 3284.59372
975.3878 3264.05259
975.5588 3262.82381
975.7298 3274.92731
975.9008 3246.60390
976.0718 3236.24118
976.2427 3220.71757
976.4137 3211.93179
976.5846 3210.23198
976.7555 3193.45911
976.9264 3192.92664
977.0973 3179.96300
977.2682 3202.01962
977.4390 3204.04711
977.6098 3224.09672
977.7807 3247.91460
977.9515 3231.36701
978.1223 3235.38103
978.2930 3196.81778
978.4638 3166.11873
978.6346 3130.09496
978.8053 3100.27653
978.9760 3116.25069
979.1467 3080.98467
979.3174 3101.30052
979.4881 3090.13909
979.6587 3106.78907
979.8294 3081.25090
980.0000 3079.96068
980.1706 3057.59686
980.3412 3037.28101
980.5118 3020.75391
980.6824 3032.69356
980.8529 3053.33709
981.0235 3061.09889
981.1940 3060.07491
981.3645 3029.37585
981.5350 3038.81699
981.7055 3001.09341
981.8759 3010.65742
982.0464 3006.13141
982.2168 2984.97589
982.3872 3011.23085
982.5576 3011.18989
982.7280 3000.11038
982.8984 2998.67680
983.0687 2997.65282
983.2391 2975.18660
983.4094 2964.29141
983.5797 2941.16984
983.7500 2935.61985
983.9203 2920.56728
984.0906 2930.31561
984.2608 2898.57209
984.4311 2912.35492
984.6013 2891.42468
984.7715 2933.79715
984.9417 2930.60232
985.1119 2927.91948
985.2820 2878.60440
985.4522 2874.91805
985.6223 2886.75531
985.7924 2885.17838
985.9625 2891.44516
986.1326 2920.03480
986.3027 2879.58742
986.4727 2882.88465
986.6428 2880.98004
986.8128 2870.57636
986.9828 2843.37933
987.1528 2845.44778
987.3228 2855.72858
987.4928 2862.26160
987.6627 2852.71807
987.8327 2834.98266
988.0026 2820.31920
988.1725 2822.18286
988.3424 2805.73767
988.5123 2800.57679
988.6821 2788.30945
988.8520 2790.54174
989.0218 2779.40079
989.1916 2807.10981
989.3614 2758.08143
989.5312 2751.50745
989.7010 2736.41393
989.8707 2732.17463
990.0405 2730.70009
990.2102 2726.27648
990.3799 2729.51227
990.5496 2716.30287
990.7193 2719.70250
990.8890 2714.82833
991.0586 2703.42115
991.2283 2712.92372
991.3979 2685.72670
991.5675 2705.32576
991.7371 2692.17780
991.9067 2672.18963
992.0762 2642.26880
992.2458 2665.08317
992.4153 2675.03630
992.5848 2690.02743
992.7543 2690.12983
992.9238 2667.17210
993.0933 2665.20605
993.2627 2654.14702
993.4322 2642.63744
993.6016 2651.50514
993.7710 2620.25314
993.9404 2628.87509
994.1098 2629.94003
994.2792 2623.16125
994.4485 2599.83489
994.6179 2608.49780
994.7872 2620.90849
994.9565 2613.57676
995.1258 2609.84946
995.2951 2609.95185
995.4643 2618.38949
995.6336 2617.87749
995.8028 2593.75242
995.9720 2571.06093
996.1412 2578.51553
996.3104 2584.31129
996.4796 2576.34469
996.6487 2574.37864
996.8179 2576.65188
996.9870 2578.33122
997.1561 2563.34009
997.3252 2547.44785
997.4943 2517.36319
997.6634 2523.44565
997.8324 2543.04472
998.0014 2533.64454
998.1705 2515.99105
998.3395 2498.25564
998.5085 2472.59459
998.6774 2487.01229
998.8464 2474.00769
999.0153 2477.89883
999.1843 2484.71857
999.3532 2499.32058
999.5221 2486.45934
999.6910 2495.65472
999.8599 2502.65877
1000.0287 2514.72131
1000.1976 2504.44050
1000.3664 2496.31007
1000.5352 2492.07077
1000.7040 2483.53074
1000.8728 2474.94975
1001.0415 2463.44017
1001.2103 2431.10274
1001.3790 2429.60773
1001.5478 2434.19518
1001.7165 2423.73006
1001.8851 2421.21105
1002.0538 2428.72710
1002.2225 2441.36307
1002.3911 2435.75163
1002.5598 2398.62196
1002.7284 2410.25442
1002.8970 2400.01458
1003.0656 2398.68340
1003.2341 2381.82862
1003.4027 2389.11938
1003.5712 2349.85982
1003.7398 2351.53916
1003.9083 2356.45428
1004.0768 2337.20338
1004.2453 2339.04655
1004.4137 2362.41387
1004.5822 2353.38233
1004.7506 2351.62108
1004.9190 2330.58844
1005.0874 2329.17534
1005.2558 2315.24915
1005.4242 2320.38955
1005.5926 2327.10689
1005.7609 2308.42942
1005.9292 2303.41189
1006.0976 2324.77221
1006.2659 2318.54638
1006.4342 2324.50597
1006.6024 2314.92148
1006.7707 2324.66981
1006.9389 2315.69970
1007.1071 2321.33162
1007.2754 2313.59030
1007.4436 2308.40894
1007.6117 2287.11006
1007.7799 2287.13054
1007.9481 2277.34125
1008.1162 2285.49217
1008.2843 2272.91764
1008.4524 2279.04106
1008.6205 2281.94918
1008.7886 2277.21837
1008.9566 2260.97798
1009.1247 2267.01949
1009.2927 2250.22614
1009.4607 2249.03832
1009.6287 2239.10567
1009.7967 2250.10327
1009.9647 2234.64110
1010.1327 2226.46971
1010.3006 2213.91566
1010.4685 2217.17193
1010.6364 2218.17543
1010.8043 2203.45054
1010.9722 2186.53432
1011.1401 2185.26458
1011.3079 2191.16273
1011.4758 2209.22581
1011.6436 2186.41144
1011.8114 2202.73375
1011.9792 2195.83209
1012.1470 2205.62138
1012.3147 2207.38264
1012.4825 2208.48854
1012.6502 2204.02397
1012.8179 2208.30422
1012.9856 2189.95442
1013.1533 2196.95848
1013.3210 2162.10205
1013.4886 2166.81238
1013.6563 2153.84873
1013.8239 2157.73987
1013.9915 2160.15648
1014.1591 2148.97457
1014.3267 2145.61590
1014.4942 2154.87272
1014.6618 2136.11333
1014.8293 2154.34025
1014.9969 2138.36609
1015.1644 2155.48711
1015.3319 2146.06645
1015.4993 2139.41055
1015.6668 2126.48787
1015.8342 2138.32513
1016.0017 2122.26906
1016.1691 2135.66277
1016.3365 2122.59673
1016.5039 2114.01574
1016.6712 2117.76352
1016.8386 2117.21057
1017.0059 2113.15560
1017.1733 2112.25449
1017.3406 2109.36685
1017.5079 2105.98770
1017.6752 2072.62629
1017.8424 2083.80820
1018.0097 2091.13993
1018.1769 2096.36225
1018.3441 2077.62334
1018.5113 2075.73921
1018.6785 2074.38755
1018.8457 2077.91005
1019.0129 2084.83219
1019.1800 2090.42314
1019.3471 2075.63681
1019.5142 2077.95101
1019.6813 2077.60286
1019.8484 2083.60341
1020.0155 2073.95747
1020.1826 2067.93645
1020.3496 2054.31745
1020.5166 2043.54514
1020.6836 2041.04662
1020.8506 2048.50122
1021.0176 2036.56156
1021.1846 2043.27890
1021.3515 2037.64699
1021.5185 2034.73887
1021.6854 2019.91158
1021.8523 2034.61599
1022.0192 2035.49662
1022.1861 2032.69090
1022.3529 2018.88759
1022.5198 2031.81028
1022.6866 2020.15733
1022.8534 2022.75825
1023.0202 2014.40254
1023.1870 2014.70974
1023.3538 2004.79757
1023.5205 2009.79461
1023.6873 2002.21713
1023.8540 1998.55126
1024.0207 1989.62212
1024.1874 2014.54590
1024.3541 1997.93687
1024.5207 2006.02635
1024.6874 1987.55367
1024.8540 1998.36695
1025.0206 1977.60054
1025.1872 1979.75091
1025.3538 1979.09556
1025.5204 1981.04113
1025.6870 1972.89022
1025.8535 1969.81826
1026.0201 1962.36366
1026.1866 1981.00017
1026.3531 1963.49004
1026.5196 1970.65793
1026.6860 1969.26531
1026.8525 1959.31218
1027.0189 1948.68322
1027.1853 1970.73985
1027.3518 1948.66275
1027.5181 1952.32861
1027.6845 1958.02196
1027.8509 1945.79559
1028.0172 1918.25041
1028.1836 1934.26553
1028.3499 1912.86425
1028.5162 1939.42641
1028.6825 1916.57107
1028.8488 1922.08011
1029.0150 1915.89525
1029.1813 1921.07661
1029.3475 1908.89119
1029.5137 1917.22642
1029.6799 1920.29838
1029.8461 1909.03455
1030.0123 1905.45060
1030.1784 1910.50909
1030.3446 1908.25632
1030.5107 1915.64949
1030.6768 1905.79876
1030.8429 1892.11833
1031.0090 1892.11833
1031.1750 1896.95153
1031.3411 1886.81409
1031.5071 1899.73677
1031.6732 1886.09730
1031.8392 1895.43604
1032.0051 1879.50284
1032.1711 1883.55782
1032.3371 1871.63864
1032.5030 1879.97387
1032.6690 1871.55672
1032.8349 1881.53033
1033.0008 1864.63459
1033.1667 1879.81004
1033.3325 1863.95876
1033.4984 1870.43034
1033.6642 1860.43625
1033.8300 1879.78956
1033.9959 1864.79842
1034.1616 1878.29454
1034.3274 1870.96281
1034.4932 1869.30396
1034.6589 1850.97464
1034.8247 1866.37536
1034.9904 1844.44162
1035.1561 1858.14253
1035.3218 1853.63700
1035.4875 1853.80083
1035.6531 1835.32815
1035.8188 1856.48367
1035.9844 1827.27964
1036.1500 1843.06948
1036.3156 1825.49790
1036.4812 1827.21820
1036.6468 1825.19071
1036.8123 1832.60436
1036.9779 1817.65418
1037.1434 1837.60140
1037.3089 1824.92447
1037.4744 1841.00103
1037.6399 1822.77411
1037.8053 1818.92392
1037.9708 1816.71212
1038.1362 1822.38499
1038.3016 1823.98241
1038.4670 1818.43241
1038.6324 1820.52134
1038.7978 1789.88373
1038.9632 1820.11175
1039.1285 1819.10824
1039.2938 1803.07265
1039.4592 1805.85788
1039.6245 1789.20790
1039.7897 1804.89534
1039.9550 1807.00475
1040.1203 1797.46121
1040.2855 1788.28631
1040.4507 1803.76896
1040.6159 1786.13595
1040.7811 1785.48060
1040.9463 1786.07451
1041.1115 1778.12839
1041.2766 1770.30515
1041.4418 1768.85109
1041.6069 1769.03541
1041.7720 1776.92009
1041.9371 1761.33504
1042.1021 1756.68615
1042.2672 1753.69612
1042.4323 1768.48245
1042.5973 1757.83302
1042.7623 1763.17822
1042.9273 1757.42342
1043.0923 1769.64980
1043.2572 1753.22509
1043.4222 1745.25849
1043.5871 1745.38137
1043.7521 1746.58967
1043.9170 1765.63578
1044.0819 1751.48431
1044.2467 1751.40240
1044.4116 1749.14963
1044.5765 1740.03617
1044.7413 1740.30240
1044.9061 1736.43174
1045.0709 1744.52122
1045.2357 1723.59098
1045.4005 1726.51957
1045.5652 1720.92862
1045.7300 1716.34117
1045.8947 1711.42605
1046.0594 1717.67235
1046.2241 1705.95797
1046.3888 1730.02160
1046.5535 1721.85021
1046.7181 1721.01054
1046.8828 1708.37457
1047.0474 1708.14930
1047.2120 1702.27163
1047.3766 1710.97549
1047.5412 1697.33602
1047.7057 1700.40797
1047.8703 1699.38399
1048.0348 1695.86148
1048.1993 1697.43842
1048.3639 1713.31018
1048.5283 1683.22552
1048.6928 1687.15762
1048.8573 1685.21205
1049.0217 1684.45430
1049.1861 1679.58013
1049.3506 1688.57071
1049.5150 1676.28290
1049.6793 1680.74747
1049.8437 1672.00265
1050.0081 1684.90485
1050.1724 1664.13845
1050.3367 1676.71298
1050.5010 1666.24785
1050.6653 1663.72885
1050.8296 1662.93015
1050.9939 1670.34379
1051.1581 1663.58550
1051.3224 1664.77332
1051.4866 1659.57148
1051.6508 1661.53753
1051.8150 1649.08588
1051.9791 1651.52296
1052.1433 1640.99640
1052.3074 1646.85359
1052.4716 1635.34401
1052.6357 1640.36153
1052.7998 1643.65876
1052.9639 1651.23624
1053.1279 1628.52427
1053.2920 1628.03276
1053.4560 1628.83147
1053.6201 1650.27370
1053.7841 1636.53183
1053.9481 1624.59217
1054.1120 1618.26395
1054.2760 1626.16911
1054.4399 1634.85249
1054.6039 1630.92039
1054.7678 1614.90528
1054.9317 1617.42428
1055.0956 1621.15158
1055.2595 1622.85140
1055.4233 1609.84680
1055.5872 1612.01764
1055.7510 1604.29680
1055.9148 1610.07207
1056.0786 1599.64791
1056.2424 1616.31838
1056.4062 1597.02651
1056.5699 1615.41727
1056.7336 1596.69884
1056.8974 1601.65492
1057.0611 1594.40511
1057.2248 1589.24423
1057.3885 1587.95401
1057.5521 1594.40511
1057.7158 1577.01786
1057.8794 1595.03998
1058.0430 1588.03593
1058.2066 1579.65974
1058.3702 1567.12617
1058.5338 1585.98796
1058.6973 1570.64867
1058.8609 1581.25715
1059.0244 1574.04830
1059.1879 1582.17874
1059.3514 1564.11565
1059.5149 1575.58428
1059.6784 1568.45735
1059.8418 1566.77801
1060.0053 1566.85993
1060.1687 1560.87986
1060.3321 1544.63947
1060.4955 1561.57617
1060.6589 1556.68153
1060.8222 1561.69905
1060.9856 1549.86179
1061.1489 1554.03965
1061.3122 1542.46862
1061.4755 1551.35681
1061.6388 1541.19888
1061.8021 1558.74997
1061.9654 1546.64648
1062.1286 1541.17840
1062.2918 1539.90866
1062.4550 1544.18892
1062.6182 1531.14336
1062.7814 1539.10995
1062.9446 1542.67342
1063.1077 1536.24280
1063.2709 1523.75019
1063.4340 1534.31771
1063.5971 1523.36108
1063.7602 1535.99704
1063.9233 1520.69872
1064.0863 1530.48801
1064.2494 1524.56938
1064.4124 1516.04983
1064.5754 1517.15573
1064.7384 1521.31311
1064.9014 1515.84503
1065.0644 1512.65020
1065.2274 1504.41736
1065.3903 1514.92344
1065.5532 1503.43434
1065.7162 1509.00481
1065.8790 1501.71405
1066.0419 1503.20906
1066.2048 1506.01478
1066.3677 1498.04818
1066.5305 1481.48011
1066.6933 1493.25593
1066.8561 1481.07052
1067.0189 1490.77789
1067.1817 1482.13546
1067.3445 1482.44266
1067.5072 1470.01149
1067.6699 1475.74580
1067.8327 1474.88565
1067.9954 1481.76683
1068.1580 1473.10392
1068.3207 1474.20983
1068.4834 1460.42700
1068.6460 1467.88160
1068.8086 1473.75927
1068.9713 1475.25429
1069.1339 1464.99397
1069.2964 1464.89157
1069.4590 1463.41703
1069.6216 1460.57035
1069.7841 1452.68567
1069.9466 1451.62073
1070.1091 1443.16262
1070.2716 1454.20117
1070.4341 1451.62073
1070.5966 1449.59324
1070.7590 1443.53125
1070.9214 1452.66519
1071.0839 1444.94435
1071.2463 1446.00930
1071.4086 1447.54527
1071.5710 1433.90580
1071.7334 1435.68753
1071.8957 1438.20653
1072.0580 1430.07610
1072.2204 1436.48624
1072.3827 1421.31079
1072.5449 1433.20949
1072.7072 1418.42316
1072.8695 1408.77722
1073.0317 1418.17740
1073.1939 1416.51855
1073.3561 1411.78774
1073.5183 1425.09953
1073.6805 1406.40158
1073.8427 1411.93110
1074.0048 1409.96505
1074.1669 1415.18737
1074.3291 1404.35361
1074.4912 1413.13940
1074.6532 1394.68720
1074.8153 1403.55490
1074.9774 1393.33554
1075.1394 1405.93055
1075.3014 1398.80362
1075.4635 1404.04642
1075.6255 1387.19163
1075.7874 1398.74218
1075.9494 1384.63167
1076.1114 1391.41045
1076.2733 1378.32393
1076.4352 1391.75860
1076.5971 1371.25844
1076.7590 1389.42392
1076.9209 1373.30640
1077.0828 1380.86341
1077.2446 1378.32393
1077.4064 1377.38186
1077.5683 1365.03261
1077.7301 1376.62411
1077.8918 1372.09810
1078.0536 1371.97523
1078.2154 1373.22449
1078.3771 1369.57910
1078.5388 1361.16195
1078.7006 1371.50419
1078.8623 1360.42468
1079.0239 1353.54351
1079.1856 1359.40070
1079.3473 1365.25789
1079.5089 1350.71731
1079.6705 1354.05550
1079.8321 1342.46400
1079.9937 1363.06656
1080.1553 1339.57636
1080.3169 1343.93853
1080.4784 1346.82617
1080.6399 1346.86713
1080.8014 1340.57986
1080.9629 1344.04093
1081.1244 1340.94850
1081.2859 1331.42544
1081.4474 1330.40146
1081.6088 1333.69869
1081.7702 1326.28504
1081.9316 1334.53836
1082.0930 1333.20718
1082.2544 1328.61973
1082.4158 1317.47878
1082.5771 1328.23061
1082.7385 1324.23707
1082.8998 1329.37748
1083.0611 1310.78192
1083.2224 1320.53025
1083.3837 1317.78597
1083.5449 1314.57066
1083.7062 1307.15701
1083.8674 1309.53266
1084.0286 1302.59004
1084.1898 1307.36181
1084.3510 1296.89669
1084.5122 1307.42325
1084.6734 1296.73285
1084.8345 1297.10149
1084.9956 1295.36071
1085.1567 1297.77732
1085.3178 1297.61348
1085.4789 1306.70646
1085.6400 1291.53101
1085.8010 1292.47308
1085.9621 1291.14190
1086.1231 1289.11441
1086.2841 1274.04136
1086.4451 1289.13489
1086.6061 1279.42752
1086.7670 1285.85814
1086.9280 1277.48195
1087.0889 1286.39061
1087.2498 1281.51645
1087.4107 1281.82364
1087.5716 1281.94652
1087.7325 1269.47439
1087.8933 1265.23509
1088.0542 1284.81367
1088.2150 1265.64469
1088.3758 1272.07531
1088.5366 1272.62826
1088.6974 1275.10630
1088.8582 1262.94137
1089.0189 1270.21166
1089.1796 1264.31351
1089.3404 1269.88398
1089.5011 1264.64118
1089.6618 1270.29358
1089.8224 1270.29358
1089.9831 1270.31406
1090.1438 1260.29949
1090.3044 1274.67623
1090.4650 1265.07126
1090.6256 1261.50779
1090.7862 1251.69802
1090.9468 1266.99635
1091.1073 1257.47329
1091.2679 1260.81148
1091.4284 1258.45632
1091.5889 1268.18417
1091.7494 1251.92330
1091.9099 1258.04672
1092.0703 1247.66352
1092.2308 1255.67108
1092.3912 1259.05023
1092.5516 1268.16369
1092.7121 1251.08363
1092.8724 1260.34045
1093.0328 1248.60559
1093.1932 1261.65115
1093.3535 1254.76997
1093.5139 1263.71960
1093.6742 1252.80392
1093.8345 1264.23159
1093.9948 1256.18307
1094.1550 1259.23455
1094.3153 1247.29489
1094.4755 1257.20706
1094.6358 1253.43879
1094.7960 1251.55466
1094.9562 1250.42828
1095.1163 1256.34691
1095.2765 1243.91574
1095.4367 1253.33640
1095.5968 1253.00872
1095.7569 1257.96480
1095.9170 1252.49673
1096.0771 1261.26203
1096.2372 1253.60263
1096.3973 1257.96480
1096.5573 1246.47570
1096.7173 1263.65816
1096.8773 1257.02274
1097.0374 1257.88289
1097.1973 1248.40079
1097.3573 1256.30595
1097.5173 1247.92976
1097.6772 1256.08067
1097.8371 1244.16150
1097.9970 1252.53769
1098.1569 1242.03161
1098.3168 1251.92330
1098.4767 1246.68050
1098.6365 1248.97422
1098.7964 1256.96130
1098.9562 1255.42532
1099.1160 1240.47515
1099.2758 1258.51776
1099.4356 1249.30190
1099.5953 1262.94137
1099.7551 1250.20300
1099.9148 1259.39838
1100.0745 1247.35633
1100.2342 1247.64304
1100.3939 1247.52016
1100.5536 1256.24451
1100.7132 1254.79045
1100.8729 1257.78049
1101.0325 1251.53418
1101.1921 1257.41185
1101.3517 1247.09009
1101.5113 1256.53123
1101.6709 1248.89230
1101.8304 1252.94728
1101.9899 1246.92625
1102.1495 1266.48435
1102.3090 1251.92330
1102.4685 1252.72200
1102.6279 1247.99120
1102.7874 1253.19304
1102.9468 1247.97072
1103.1063 1255.15909
1103.2657 1249.77293
1103.4251 1259.07071
1103.5845 1242.76888
1103.7438 1259.41886
1103.9032 1247.62256
1104.0625 1251.39083
1104.2219 1245.67699
1104.3812 1253.02920
1104.5405 1240.41371
1104.6997 1254.05318
1104.8590 1244.26389
1105.0183 1255.52772
1105.1775 1244.30485
1105.3367 1255.99875
1105.4959 1255.07717
1105.6551 1264.47735
1105.8143 1243.69046
1105.9735 1255.40484
1106.1326 1244.40725
1106.2917 1254.23750
1106.4508 1246.29138
1106.6099 1256.16259
1106.7690 1247.97072
1106.9281 1257.10466
1107.0872 1242.87127
1107.2462 1261.26203
1107.4052 1252.96776
1107.5642 1246.72146
1107.7232 1247.90928
1107.8822 1245.82035
1108.0412 1252.10761
1108.2001 1254.74949
1108.3591 1254.17606
1108.5180 1259.23455
1108.6769 1246.84433
1108.8358 1256.77698
1108.9947 1243.21943
1109.1535 1255.15909
1109.3124 1245.82035
1109.4712 1265.19413
1109.6300 1248.31887
1109.7888 1245.26740
1109.9476 1245.51315
1110.1064 1264.39543
1110.2651 1254.38086
1110.4239 1255.13861
1110.5826 1253.62311
1110.7413 1252.53769
1110.9000 1254.44230
1111.0587 1258.76351
1111.2173 1247.09009
1111.3760 1250.87883
1111.5346 1252.78344
1111.6932 1253.56167
1111.8518 1246.35282
1112.0104 1257.37089
1112.1690 1247.25393
1112.3276 1254.54470
1112.4861 1248.95374
1112.6446 1253.80743
1112.8032 1250.08012
1112.9617 1249.75245
1113.1201 1249.11758
1113.2786 1250.51020
1113.4371 1241.56057
1113.5955 1253.02920
1113.7539 1240.63899
1113.9123 1257.59617
1114.0707 1243.79286
1114.2291 1253.95079
1114.3875 1252.47625
1114.5458 1258.47680
1114.7042 1246.33234
1114.8625 1250.30540
1115.0208 1251.18603
1115.1791 1257.94433
1115.3374 1251.69802
1115.4956 1250.87883
1115.6539 1247.90928
1115.8121 1257.92385
1115.9703 1247.54064
1116.1285 1256.51075
1116.2867 1245.47220
1116.4449 1257.39137
1116.6030 1247.37681
1116.7612 1252.04618
1116.9193 1246.35282
1117.0774 1255.34340
1117.2355 1238.85726
1117.3936 1251.24747
1117.5516 1246.02515
1117.7097 1253.39783
1117.8677 1243.54710
1118.0257 1253.13160
1118.1837 1251.16555
1118.3417 1258.59967
1118.4997 1255.91684
1118.6577 1249.93677
1118.8156 1257.96480
1118.9735 1241.97017
1119.1315 1249.93677
1119.2894 1252.96776
1119.4472 1246.78290
1119.6051 1254.95429
1119.7630 1244.14102
1119.9208 1256.36739
1120.0786 1246.53714
1120.2364 1253.88935
1120.3942 1243.23991
1120.5520 1254.17606
1120.7098 1253.95079
1120.8675 1258.80447
1121.0253 1252.88584
1121.1830 1261.01628
1121.3407 1255.03621
1121.4984 1255.42532
1121.6560 1257.12514
