# Averages = 100
# wavelength [µm]	intensity
446.8250 14.33578
447.0374 36746.70328
447.2498 1227.06096
447.4621 1219.48347
447.6745 1225.54546
447.8868 1244.32533
448.0992 1241.86777
448.3115 1234.86372
448.5238 1246.31186
448.7360 1236.68641
448.9483 1254.97477
449.1606 1241.60153
449.3728 1268.61424
449.5850 1229.64140
449.7972 1245.22644
450.0094 1235.15043
450.2216 1255.09765
450.4337 1256.01923
450.6459 1731.82381
450.8580 2096.93568
451.0701 2116.94434
451.2822 2148.38066
451.4943 2127.49138
451.7064 2117.57921
451.9184 2114.26150
452.1305 2208.11991
452.3425 2307.38495
452.5545 2201.54593
452.7665 2224.29886
452.9785 2313.69270
453.1905 2347.44322
453.4024 2313.22166
453.6143 2417.58615
453.8263 2407.46918
454.0382 2593.05611
454.2501 2393.29724
454.4619 2378.90002
454.6738 2498.52187
454.8856 2628.28118
455.0975 2442.26417
455.3093 2435.38300
455.5211 2504.89106
455.7329 2474.60160
455.9446 2527.54159
456.1564 2545.44084
456.3681 2623.95996
456.5798 2743.49990
456.7916 2661.41731
457.0033 2633.13486
457.2149 2598.68803
457.4266 2641.06050
457.6382 2690.49847
457.8499 2656.33835
458.0615 2783.18953
458.2731 2670.08022
458.4847 2798.61074
458.6963 2891.64996
458.9078 2912.39588
459.1194 3077.72840
459.3309 3099.41639
459.5424 2928.14476
459.7539 2839.16052
459.9654 2859.72212
460.1769 2901.21397
460.3883 2880.87764
460.5998 2752.77720
460.8112 2745.54787
461.0226 2802.64523
461.2340 2888.10697
461.4454 2856.50681
461.6567 2829.57602
461.8681 2849.15460
462.0794 2790.25502
462.2907 2930.60232
462.5020 3178.26318
462.7133 3269.17252
462.9246 3047.70517
463.1359 2908.97577
463.3471 2774.87478
463.5583 2839.91827
463.7696 3244.33065
463.9808 3062.98302
464.1919 3004.69783
464.4031 2993.84360
464.6143 3021.22494
464.8254 2938.22077
465.0365 2894.68095
465.2476 3167.34751
465.4587 3326.18797
465.6698 2905.24847
465.8809 2978.48383
466.0919 2962.55063
466.3030 3021.16350
466.5140 3057.47399
466.7250 2972.19657
466.9360 3112.83058
467.1469 3046.94743
467.3579 2845.52970
467.5688 2835.49465
467.7798 3073.44814
467.9907 3190.03900
468.2016 3074.14445
468.4125 3039.80002
468.6233 2890.05254
468.8342 2925.85103
469.0450 3101.38244
469.2559 3194.72885
469.4667 3150.92280
469.6775 2896.11453
469.8882 3060.56642
470.0990 3018.33730
470.3098 3310.97156
470.5205 3128.23131
470.7312 3215.12662
470.9419 3424.40855
471.1526 3315.19037
471.3633 3043.50684
471.5739 3061.44705
471.7846 3061.11937
471.9952 2975.90339
472.2058 3087.49721
472.4164 3066.71032
472.6270 3056.77768
472.8376 3175.98994
473.0481 3377.28479
473.2587 3438.19138
473.4692 3350.55879
473.6797 3254.32474
473.8902 3000.76573
474.1007 2986.55283
474.3111 3009.36720
474.5216 2942.78774
474.7320 3048.83156
474.9424 3220.30798
475.1528 3295.12028
475.3632 3150.82040
475.5736 3097.75753
475.7840 3118.13482
475.9943 3145.70048
476.2046 3191.06299
476.4149 3239.08785
476.6252 3265.87529
476.8355 3375.21634
477.0458 3445.97366
477.2561 3431.69932
477.4663 3282.07472
477.6765 3294.28061
477.8867 3315.51805
478.0969 3294.64925
478.3071 3288.71014
478.5173 3398.11263
478.7274 3356.27263
478.9375 3418.75615
479.1477 3383.59253
479.3578 3515.97323
479.5679 3474.17419
479.7779 3504.25885
479.9880 3505.46715
480.1980 3562.66692
480.4081 3553.02098
480.6181 3432.41610
480.8281 3544.64479
481.0381 3488.71477
481.2480 3484.61883
481.4580 3559.14441
481.6679 3531.68115
481.8778 3474.80906
482.0877 3490.90609
482.2976 3393.52518
482.5075 3493.89613
482.7174 3561.13094
482.9272 3613.47702
483.1371 3498.38118
483.3469 3547.10235
483.5567 3664.77864
483.7665 3558.18187
483.9762 3591.46136
484.1860 3753.98816
484.3957 3749.50311
484.6055 3598.81357
484.8152 3668.52642
485.0249 3790.33960
485.2346 3774.57024
485.4442 3770.26951
485.6539 3811.47464
485.8635 3795.62336
486.0732 3675.22328
486.2828 3702.97326
486.4924 3685.38120
486.7019 3814.03460
486.9115 3773.05475
487.1210 3773.13667
487.3306 3909.08083
487.5401 3870.68142
487.7496 3935.78634
487.9591 3974.61583
488.1686 3918.27621
488.3780 3865.86869
488.5875 3982.37763
488.7969 4070.19453
489.0063 4046.11042
489.2157 4085.28806
489.4251 4005.51968
489.6345 3995.32080
489.8438 4095.20023
490.0531 3934.68044
490.2625 4006.52318
490.4718 4105.29672
490.6811 4160.63283
490.8903 4177.13946
491.0996 4211.13574
491.3089 4226.39311
491.5181 4249.51468
491.7273 4256.62113
491.9365 4236.98111
492.1457 4321.00927
492.3549 4338.49892
492.5640 4260.02076
492.7732 4320.74303
492.9823 4387.50681
493.1914 4506.35044
493.4005 4470.44955
493.6096 4418.71785
493.8187 4403.66528
494.0277 4505.75653
494.2368 4490.84731
494.4458 4529.47200
494.6548 4586.56937
494.8638 4642.08981
495.0728 4632.93539
495.2817 4627.18059
495.4907 4659.98905
495.6996 4689.27501
495.9085 4691.60969
496.1174 4770.64080
496.3263 4770.41553
496.5352 4786.30777
496.7440 4889.23867
496.9529 4918.60655
497.1617 4847.15292
497.3705 4881.43591
497.5793 5022.31568
497.7881 4909.73884
497.9969 5003.49485
498.2056 5053.38337
498.4144 5074.17025
498.6231 5148.94159
498.8318 5139.99197
499.0405 5163.50265
499.2492 5147.95857
499.4578 5199.23970
499.6665 5198.15428
499.8751 5338.33774
500.0837 5323.63333
500.2923 5337.51855
500.5009 5369.09823
500.7095 5480.56917
500.9180 5424.90538
501.1266 5509.19978
501.3351 5524.14995
501.5436 5598.90081
501.7521 5609.38641
501.9606 5675.98635
502.1691 5723.90882
502.3775 5678.19816
502.5860 5745.69921
502.7944 5773.94070
503.0028 5835.64599
503.2112 5859.97586
503.4196 5897.06458
503.6279 5958.42172
503.8363 5898.72343
504.0446 6069.56498
504.2529 6021.13052
504.4612 6089.94227
504.6695 6191.99256
504.8778 6178.37356
505.0860 6196.10897
505.2943 6203.44070
505.5025 6286.11720
505.7107 6307.25224
505.9189 6396.93279
506.1271 6429.57741
506.3353 6435.72132
506.5434 6418.29310
506.7516 6527.87991
506.9597 6573.42674
507.1678 6626.55105
507.3759 6604.37154
507.5840 6686.18790
507.7920 6736.85464
508.0001 6743.85870
508.2081 6855.80067
508.4161 6825.18353
508.6241 7032.29461
508.8321 6994.61199
509.0401 6941.65152
509.2480 7082.30601
509.4560 7083.96487
509.6639 7170.90114
509.8718 7189.39430
510.0797 7309.50766
510.2876 7308.79087
510.4955 7400.17124
510.7033 7437.42379
510.9112 7473.77524
511.1190 7610.39523
511.3268 7558.11059
511.5346 7648.34409
511.7424 7679.08410
511.9501 7788.34324
512.1579 7826.18970
512.3656 7848.14393
512.5733 7836.16331
512.7810 7970.34622
512.9887 8048.25095
513.1964 8080.28118
513.4040 8107.47821
513.6117 8182.02427
513.8193 8247.84599
514.0269 8277.62345
514.2345 8418.99473
514.4421 8370.66267
514.6497 8364.17061
514.8572 8533.18947
515.0647 8598.29440
515.2723 8657.70597
515.4798 8731.49429
515.6873 8796.90641
515.8947 8869.79362
516.1022 8831.72188
516.3097 8908.90982
516.5171 9033.85639
516.7245 9092.14158
516.9319 9168.59226
517.1393 9185.93855
517.3467 9185.99999
517.5540 9210.94425
517.7614 9446.09202
517.9687 9480.47742
518.1760 9513.75691
518.3833 9635.42673
518.5906 9646.21953
518.7978 9824.18801
519.0051 9786.97642
519.2123 9952.34990
519.4196 9779.25558
519.6268 9951.48975
519.8340 10019.91239
520.0411 10056.79630
520.2483 10295.58946
520.4554 10278.95995
520.6626 10536.49202
520.8697 10457.50187
521.0768 10667.99210
521.2839 10621.48273
521.4909 10634.61021
521.6980 10799.43073
521.9050 11003.10122
522.1121 10897.38508
522.3191 11141.29815
522.5261 11133.80259
522.7331 11178.34591
522.9400 11387.21824
523.1470 11397.64240
523.3539 11522.11794
523.5608 11506.86058
523.7677 11541.88084
523.9746 11687.86005
524.1815 11965.25742
524.3884 11845.36933
524.5952 11876.23222
524.8020 12137.75783
525.0089 12066.50900
525.2157 12197.64044
525.4225 12293.46489
525.6292 12332.74493
525.8360 12418.75962
526.0427 12491.07340
526.2494 12677.58191
526.4562 12637.87180
526.6629 12788.09031
526.8695 12782.86799
527.0762 13024.48734
527.2829 13105.79170
527.4895 13223.71374
527.6961 13329.51180
527.9027 13439.50821
528.1093 13491.81333
528.3159 13555.48468
528.5224 13484.72736
528.7290 13901.52996
528.9355 13727.45261
529.1420 14121.33844
529.3485 14017.95698
529.5550 14214.07047
529.7615 14160.08601
529.9680 14316.34603
530.1744 14340.92165
530.3808 14537.50617
530.5872 14497.44790
530.7936 14664.95127
531.0000 14688.70770
531.2064 14874.33559
531.4127 14968.91079
531.6191 15059.34909
531.8254 15202.58402
532.0317 15376.47705
532.2380 15313.01050
532.4443 15471.91239
532.6505 15323.43466
532.8568 15608.57335
533.0630 15925.74227
533.2692 15839.46135
533.4754 15978.19075
533.6816 16194.00570
533.8878 16077.61963
534.0939 16404.45496
534.3001 16438.00069
534.5062 16561.80040
534.7123 16456.57577
534.9184 16556.14801
535.1245 16726.12942
535.3306 16726.51853
535.5366 17113.60510
535.7426 17108.50566
535.9487 17156.36669
536.1547 17152.08644
536.3607 17459.52750
536.5666 17332.36913
536.7726 17489.22305
536.9785 17695.10535
537.1845 17899.22640
537.3904 17765.98555
537.5963 17816.54990
537.8022 18012.06947
538.0080 18207.19994
538.2139 18276.27792
538.4197 18414.63869
538.6256 18358.46291
538.8314 18485.51889
539.0372 18630.26932
539.2430 18969.55630
539.4487 18788.24963
539.6545 19117.15341
539.8602 19000.80831
540.0659 19192.21147
540.2716 19631.70556
540.4773 19659.08690
540.6830 19771.92998
540.8887 19918.60550
541.0943 19687.73798
541.2999 19816.39138
541.5056 19882.29502
541.7112 20070.81054
541.9167 19984.85729
542.1223 20025.96002
542.3279 20430.78201
542.5334 20518.94706
542.7389 20714.99911
542.9444 20809.34903
543.1499 20904.82533
543.3554 20830.32023
543.5609 21198.29925
543.7663 21229.20310
543.9718 21077.96061
544.1772 21228.95735
544.3826 21256.54349
544.5880 21890.86085
544.7934 21689.75032
544.9987 21754.71188
545.2041 22176.59345
545.4094 22088.81751
545.6147 22127.97467
545.8200 22393.92389
546.0253 22381.71800
546.2306 22712.17823
546.4358 22491.55056
546.6411 22848.26576
546.8463 22683.11756
547.0515 22996.14958
547.2567 23144.21772
547.4619 23179.99574
547.6670 23319.60577
547.8722 23470.33627
548.0773 23728.66704
548.2824 23704.31670
548.4876 23875.42448
548.6926 23929.51134
548.8977 24055.89149
549.1028 24212.72494
549.3078 24360.34253
549.5129 24380.02350
549.7179 24502.34868
549.9229 24672.20721
550.1279 24554.26469
550.3328 24940.49111
550.5378 24603.06778
550.7427 25008.23792
550.9476 25182.41766
551.1526 24615.84711
551.3575 25246.72388
551.5623 25327.96680
551.7672 25190.50714
551.9720 25289.56739
552.1769 25434.58405
552.3817 25620.29386
552.5865 25489.92017
552.7913 25709.70817
552.9961 25584.14721
553.2008 25801.47765
553.4056 26141.44047
553.6103 26007.03228
553.8150 26273.43205
554.0197 26350.92719
554.2244 26254.50882
554.4291 26355.30984
554.6337 26763.59289
554.8384 26544.25544
555.0430 26772.60396
555.2476 26555.90838
555.4522 26540.81485
555.6568 26870.55830
555.8613 27034.27292
556.0659 27194.23976
556.2704 26878.32010
556.4750 27210.21392
556.6795 27419.25009
556.8839 27092.84483
557.0884 27607.86801
557.2929 27532.66660
557.4973 27338.33484
557.7018 27464.59212
557.9062 27649.60561
558.1106 27656.30247
558.3150 27450.21538
558.5193 27871.62591
558.7237 27924.75022
558.9280 27686.07994
559.1323 27949.26440
559.3367 27805.74275
559.5410 28050.53646
559.7452 27784.56675
559.9495 28104.80763
560.1537 28097.76262
560.3580 28011.85033
560.5622 28254.26839
560.7664 28475.79717
560.9706 28449.03022
561.1748 28557.65448
561.3789 28582.98785
561.5831 28559.43621
561.7872 28500.98718
561.9913 28786.37163
562.1954 28742.50414
562.3995 28884.55125
562.6036 28859.03356
562.8076 28674.71637
563.0117 28963.84860
563.2157 28864.19444
563.4197 29069.11419
563.6237 29285.40017
563.8277 28947.64917
564.0316 28796.71387
564.2356 29196.23161
564.4395 29184.90635
564.6434 29376.22759
564.8473 29524.60292
565.0512 29509.26364
565.2551 29470.61847
565.4590 29577.31764
565.6628 29727.47471
565.8666 29987.87393
566.0705 29742.81399
566.2743 29761.30715
566.4780 29801.75453
566.6818 29731.50921
566.8856 30252.73773
567.0893 29837.49159
567.2930 29972.43225
567.4967 29739.04573
567.7004 29969.81085
567.9041 30120.76663
568.1078 30151.32232
568.3114 30368.87804
568.5151 30294.39342
568.7187 29968.72543
568.9223 30151.21992
569.1259 30313.82864
569.3295 30666.79605
569.5330 30637.87874
569.7366 30610.49739
569.9401 30736.44747
570.1436 30763.70594
570.3471 30869.95455
570.5506 30788.44540
570.7541 30801.73672
570.9575 30789.20315
571.1609 30514.42718
571.3644 31034.07877
571.5678 30987.52844
571.7712 31370.66243
571.9746 31245.94114
572.1779 31043.00791
572.3813 30901.84143
572.5846 31163.63327
572.7879 31062.40218
572.9912 31714.10679
573.1945 31492.45514
573.3978 31128.16245
573.6010 31406.11277
573.8043 31947.78003
574.0075 31174.95854
574.2107 31367.20137
574.4139 31293.82265
574.6171 31439.31035
574.8203 31224.80610
575.0234 31670.66938
575.2266 31148.86742
575.4297 31305.88518
575.6328 31436.07456
575.8359 31742.49164
576.0390 31104.91801
576.2420 31228.36957
576.4451 30982.20372
576.6481 31378.23992
576.8512 31831.53732
577.0542 31134.06060
577.2571 31568.74197
577.4601 31613.10097
577.6631 31451.25000
577.8660 31363.14639
578.0689 31239.51052
578.2719 31451.51624
578.4748 31222.84005
578.6776 31172.00947
578.8805 31294.15032
579.0834 30809.72379
579.2862 31244.40516
579.4890 31619.81831
579.6918 31410.96646
579.8946 31122.34622
580.0974 31552.56302
580.3002 31218.47788
580.5029 31075.22246
580.7057 31457.61919
580.9084 30983.98545
581.1111 31587.21465
581.3138 31336.29752
581.5164 31099.51137
581.7191 30948.10504
581.9217 31052.63337
582.1244 31089.23057
582.3270 31134.28588
582.5296 31052.87912
582.7322 31334.61818
582.9347 31216.45039
583.1373 30917.40599
583.3398 31207.84892
583.5424 30945.15597
583.7449 30863.83113
583.9474 30687.93109
584.1498 30622.99000
584.3523 31058.53152
584.5548 30656.35141
584.7572 30840.97580
584.9596 30996.49854
585.1620 31558.97316
585.3644 30733.86703
585.5668 30772.51220
585.7691 31176.06444
585.9715 30995.16736
586.1738 31205.47328
586.3761 31219.31754
586.5784 31423.68435
586.7807 31331.25952
586.9830 31255.97618
587.1852 31240.88265
587.3875 30934.26077
587.5897 31456.73856
587.7919 31208.31995
587.9941 30867.49699
588.1963 30972.53731
588.3984 31404.96591
588.6006 30828.74942
588.8027 31398.51481
589.0048 31045.05588
589.2069 31213.17364
589.4090 31204.55169
589.6111 31424.31922
589.8131 31328.14660
590.0152 31526.59478
590.2172 31409.88104
590.4192 31713.59480
590.6212 31487.33521
590.8232 31213.15316
591.0252 31627.82587
591.2271 31679.33228
591.4291 31661.18728
591.6310 31533.39403
591.8329 31507.42579
592.0348 31828.13769
592.2367 31852.46756
592.4385 32207.29863
592.6404 32288.11147
592.8422 32375.84646
593.0440 32496.22606
593.2458 32732.04966
593.4476 32833.56747
593.6494 32871.88497
593.8512 33066.44200
594.0529 33369.80761
594.2546 33255.65383
594.4563 33211.97066
594.6580 32944.60834
594.8597 32866.82648
595.0614 32970.43322
595.2630 33261.87966
595.4647 33215.94372
595.6663 32890.37813
595.8679 33245.29111
596.0695 33708.39828
596.2711 33505.48554
596.4727 33619.02493
596.6742 33886.55108
596.8757 34016.39230
597.0773 33929.04644
597.2788 33626.99152
597.4802 33979.20119
597.6817 34457.34045
597.8832 34112.54444
598.0846 34464.40595
598.2860 34413.75968
598.4875 34154.32300
598.6889 34696.35889
598.8902 34689.21148
599.0916 34789.13187
599.2930 34426.96908
599.4943 34913.93509
599.6956 34938.24448
599.8969 34710.65371
600.0982 34428.77129
600.2995 34586.69016
600.5008 35354.98564
600.7020 34722.40905
600.9032 35264.89549
601.1045 34998.37284
601.3057 34722.59337
601.5068 35397.68579
601.7080 35442.08575
601.9092 35237.80087
602.1103 35758.55836
602.3115 35673.87485
602.5126 35902.69440
602.7137 35825.48598
602.9147 35751.75910
603.1158 35966.83678
603.3169 36189.28715
603.5179 36054.22361
603.7189 35854.40330
603.9199 36093.33981
604.1209 36108.84293
604.3219 36089.73539
604.5229 36180.54232
604.7238 36374.60784
604.9247 36340.69348
605.1257 36539.89940
605.3266 36727.49333
605.5275 36367.03035
605.7283 36504.34666
605.9292 36667.03730
606.1300 36095.63354
606.3309 36351.67059
606.5317 36693.94761
606.7325 36863.49894
606.9332 36848.85596
607.1340 37108.84560
607.3348 37039.76761
607.5355 36448.23232
607.7362 37412.29312
607.9369 36739.08484
608.1376 37036.63422
608.3383 36750.34867
608.5390 37597.83909
608.7396 37173.66381
608.9402 37761.36940
609.1409 37781.72621
609.3415 37409.71268
609.5421 37315.28085
609.7426 37624.25789
609.9432 37211.44883
610.1437 37035.01632
610.3443 37877.03867
610.5448 37665.58590
610.7453 37925.69841
610.9457 37633.96526
611.1462 37856.08795
611.3467 37726.28769
611.5471 38096.31469
611.7475 37624.09405
611.9479 38391.36555
612.1483 37835.52635
612.3487 38394.47846
612.5491 38242.17102
612.7494 38831.86314
612.9497 38151.48697
613.1501 38584.93955
613.3504 38333.44899
613.5506 38953.86064
613.7509 38731.81987
613.9512 38522.61986
614.1514 38753.11875
614.3516 39132.27968
614.5519 38974.77040
614.7521 39072.76571
614.9522 38775.19585
615.1524 38802.39287
615.3526 39270.21038
615.5527 39884.21189
615.7528 39482.33898
615.9529 39487.68418
616.1530 39832.35732
616.3531 39859.82058
616.5532 39732.25260
616.7532 39300.76607
616.9532 39646.07408
617.1533 39447.56447
617.3533 39873.13238
617.5532 39556.12729
617.7532 39762.84926
617.9532 38950.82965
618.1531 39949.52161
618.3530 39380.53445
618.5530 39714.31240
618.7528 39867.66430
618.9527 39940.01903
619.1526 39514.38969
619.3524 39583.61103
619.5523 39819.82375
619.7521 39960.47824
619.9519 39978.07029
620.1517 39931.76572
620.3515 40323.93126
620.5512 40606.71478
620.7510 40384.57161
620.9507 40048.41802
621.1504 40102.15672
621.3501 40211.23154
621.5498 40454.30495
621.7495 40540.13532
621.9492 40141.94875
622.1488 39988.43302
622.3484 40060.48056
622.5480 39981.96143
622.7476 40740.71338
622.9472 40014.79037
623.1468 40241.23428
623.3463 41361.94422
623.5459 41013.81001
623.7454 40744.33828
623.9449 40786.75171
624.1444 40770.12221
624.3439 41175.25139
624.5433 40888.80200
624.7428 40713.65971
624.9422 40836.10776
625.1416 40939.67354
625.3410 40929.12650
625.5404 40791.85116
625.7398 40857.63191
625.9391 41054.15499
626.1385 40611.52751
626.3378 40698.89385
626.5371 41354.51009
626.7364 40762.83144
626.9357 41156.94255
627.1350 41138.01931
627.3342 40737.06799
627.5335 40549.96557
627.7327 40766.39490
627.9319 40826.54375
628.1311 41816.90048
628.3303 41027.40852
628.5294 41318.17912
628.7286 41457.17476
628.9277 41849.01263
629.1268 41510.19667
629.3259 42160.69299
629.5250 42079.45007
629.7241 42016.80270
629.9231 41242.17900
630.1222 42094.91223
630.3212 41943.34207
630.5202 41517.63080
630.7192 42055.95987
630.9182 41472.28877
631.1171 41736.04667
631.3161 41546.71196
631.5150 41384.75859
631.7140 41647.22626
631.9129 41816.92095
632.1118 42265.67187
632.3106 42033.47317
632.5095 41832.01448
632.7083 41767.64683
632.9072 41876.98788
633.1060 41957.86216
633.3048 42034.57907
633.5036 41489.69651
633.7023 41844.56853
633.9011 42329.09746
634.0998 42169.54021
634.2986 42278.20544
634.4973 42038.55213
634.6960 42155.94170
634.8947 42031.03609
635.0933 42362.19263
635.2920 42005.41600
635.4906 41680.62863
635.6892 42456.05104
635.8878 42520.25486
636.0864 42519.21040
636.2850 42185.47341
636.4836 42226.82190
636.6821 42274.15046
636.8806 42476.75601
637.0792 42411.52820
637.2777 42400.03910
637.4761 42440.54792
637.6746 42210.90918
637.8731 42563.93804
638.0715 42066.83458
638.2699 42787.06423
638.4683 42437.18925
638.6667 41714.03100
638.8651 42530.80190
639.0635 42726.23956
639.2618 42759.17090
639.4602 42682.90454
639.6585 42538.42035
639.8568 42659.33242
640.0551 42736.09029
640.2534 42648.70346
640.4516 42367.39448
640.6499 42605.88044
640.8481 43345.34051
641.0463 43137.43072
641.2445 43348.20767
641.4427 43189.16242
641.6409 42945.61797
641.8390 43180.84766
642.0372 43520.83095
642.2353 43325.88481
642.4334 42807.99447
642.6315 43063.41713
642.8296 43059.46455
643.0277 42872.36213
643.2257 43499.30680
643.4237 43559.66044
643.6218 43509.13705
643.8198 43218.16165
644.0178 43359.63533
644.2157 43300.12136
644.4137 43209.27347
644.6116 43876.82936
644.8096 44211.05786
645.0075 43069.49960
645.2054 43748.72892
645.4033 43629.18898
645.6011 43561.42170
645.7990 43561.48313
645.9968 43765.44034
646.1947 43582.67961
646.3925 43819.48624
646.5903 43613.87017
646.7881 43852.82717
646.9858 43623.67995
647.1836 43494.88319
647.3813 43225.98489
647.5790 43695.97324
647.7767 44320.76755
647.9744 43434.05852
648.1721 43422.75373
648.3698 44261.49933
648.5674 43369.54750
648.7650 43786.69826
648.9627 43435.14394
649.1603 44280.50448
649.3578 43908.36808
649.5554 44038.16834
649.7530 44492.96076
649.9505 43446.87880
650.1480 44002.82040
650.3455 44391.89350
650.5430 43793.19032
650.7405 44005.83091
650.9380 43746.82431
651.1354 44081.25760
651.3329 43725.97598
651.5303 44174.27634
651.7277 44226.64290
651.9251 44312.71903
652.1225 44133.64464
652.3198 44010.29549
652.5172 44203.19366
652.7145 44481.65597
652.9118 44293.01757
653.1091 44291.62495
653.3064 44600.00809
653.5037 44244.46023
653.7009 43959.69018
653.8982 44290.21185
654.0954 44712.99452
654.2926 44888.68976
654.4898 44708.69379
654.6870 44749.75556
654.8841 45387.98454
655.0813 44826.55439
655.2784 44800.70902
655.4755 45224.49520
655.6726 45411.96626
655.8697 44793.21346
656.0668 45179.68564
656.2639 44863.11063
656.4609 44896.20581
656.6579 44961.37217
656.8550 45135.26520
657.0520 44958.07494
657.2490 44335.57436
657.4459 44929.23954
657.6429 45210.17990
657.8398 44993.58672
658.0367 45399.30981
658.2337 45221.25941
658.4305 45377.06887
658.6274 45507.62688
658.8243 45318.10785
659.0211 45649.36680
659.2180 45610.49635
659.4148 45796.36999
659.6116 46031.27201
659.8084 45971.20508
660.0052 46325.36032
660.2019 46048.39303
660.3987 45816.33769
660.5954 45870.97749
660.7921 45953.94071
660.9888 45560.68975
661.1855 45940.38315
661.3822 46147.76047
661.5788 45574.84121
661.7755 45882.01605
661.9721 45517.04753
662.1687 46048.24967
662.3653 45897.72397
662.5619 46158.98334
662.7584 45631.28323
662.9550 45750.61837
663.1515 46042.45392
663.3480 45683.69075
663.5445 46372.21785
663.7410 45763.78681
663.9375 45997.25525
664.1340 46021.72847
664.3304 46377.50160
664.5268 45967.21155
664.7233 46423.35563
664.9197 46355.36306
665.1160 46330.56216
665.3124 46084.64207
665.5088 46158.34847
665.7051 46240.65633
665.9014 46232.97645
666.0977 45999.56945
666.2940 45945.87171
666.4903 46222.20413
666.6866 46337.15662
666.8828 45963.79144
667.0791 46077.26939
667.2753 46288.47640
667.4715 46118.45404
667.6677 46644.63865
667.8639 46874.54362
668.0600 46064.30574
668.2562 46380.30732
668.4523 46229.98642
668.6484 46390.09661
668.8445 45959.10159
669.0406 47016.46785
669.2367 46911.28418
669.4327 47033.24072
669.6287 46776.91695
669.8248 46554.50754
670.0208 46805.21988
670.2168 46705.72956
670.4128 46773.31252
670.6087 46746.95517
670.8047 46627.21043
671.0006 47317.70358
671.1965 46218.88642
671.3924 46941.26644
671.5883 46447.62405
671.7842 46643.38939
671.9801 46020.86833
672.1759 46475.33307
672.3717 46314.28081
672.5675 47091.36207
672.7633 46864.30378
672.9591 47055.11302
673.1549 47473.18537
673.3506 46873.29436
673.5464 46542.03541
673.7421 47076.18662
673.9378 46948.96680
674.1335 46663.62332
674.3292 46973.07140
674.5249 46487.82568
674.7205 45739.19070
674.9161 46119.60090
675.1118 46054.22974
675.3074 46104.63025
675.5030 46127.26030
675.6985 46579.00125
675.8941 46481.96849
676.0896 46545.78320
676.2852 46670.64785
676.4807 46484.46701
676.6762 46695.24396
676.8717 47146.49339
677.0671 46914.37661
677.2626 47463.37560
677.4580 46973.95202
677.6534 46997.13503
677.8489 46561.98263
678.0442 46650.49584
678.2396 45982.07980
678.4350 46304.08192
678.6303 46449.46723
678.8257 46268.11959
679.0210 46597.02338
679.2163 46283.21312
679.4116 46515.32990
679.6069 46302.54595
679.8021 45845.37788
679.9974 45776.52518
680.1926 46226.44343
680.3878 46117.45053
680.5830 46093.28450
680.7782 46196.48165
680.9734 45976.48884
681.1685 45939.31821
681.3636 45930.65530
681.5588 45999.15986
681.7539 45859.54983
681.9490 45866.73820
682.1441 45846.91386
682.3391 45466.64702
682.5342 46238.07589
682.7292 46329.88633
682.9242 46386.43075
683.1192 46125.51953
683.3142 46620.22686
683.5092 46561.59352
683.7041 46731.47252
683.8991 46600.32060
684.0940 46442.74989
684.2889 45827.00760
684.4838 46295.93101
684.6787 45948.92318
684.8736 45121.07278
685.0684 45911.54775
685.2633 45526.05860
685.4581 45721.47577
685.6529 46065.57548
685.8477 46380.24588
686.0425 46341.12968
686.2372 45944.39717
686.4320 45777.59012
686.6267 45894.05810
686.8214 45620.69523
687.0161 45531.13756
687.2108 45661.63413
687.4055 45495.58482
687.6002 45823.87421
687.7948 45782.17757
687.9894 46200.65950
688.1841 45771.09806
688.3787 45874.25424
688.5732 45513.68887
688.7678 45797.78309
688.9624 45569.25026
689.1569 45553.43994
689.3514 45270.02154
689.5459 44917.07461
689.7404 45087.91616
689.9349 45082.07945
690.1294 45213.27233
690.3238 45298.52927
690.5182 45396.25834
690.7127 45526.28387
690.9071 45364.24859
691.1015 45039.74794
691.2958 45267.44110
691.4902 45531.28092
691.6845 46377.15345
691.8789 45533.69752
692.0732 45589.52515
692.2675 45300.24956
692.4618 45536.25748
692.6560 45334.61448
692.8503 45897.06862
693.0445 45867.94650
693.2387 45145.11593
693.4329 45637.93913
693.6271 45489.39996
693.8213 45571.03199
694.0155 45792.11022
694.2096 45466.68798
694.4038 45103.07113
694.5979 45183.55630
694.7920 45163.75245
694.9861 45126.17222
695.1801 45037.57709
695.3742 45018.40810
695.5682 45033.78835
695.7623 44889.73423
695.9563 44637.52688
696.1503 45070.91802
696.3443 44323.67566
696.5382 44833.53796
696.7322 44815.39296
696.9261 45149.70338
697.1201 44613.17653
697.3140 44926.08567
697.5079 45110.50526
697.7017 44363.81585
697.8956 44484.93272
698.0894 44173.14996
698.2833 44702.97996
698.4771 44719.79378
698.6709 45104.87334
698.8647 44397.32062
699.0585 45034.44370
699.2522 44131.28948
699.4460 44592.59444
699.6397 44573.71217
699.8334 44317.14264
700.0271 44176.95918
700.2208 44353.82176
700.4144 44671.89179
700.6081 44544.13950
700.8017 44278.53843
700.9954 44792.37379
701.1890 44602.93668
701.3826 44037.88162
701.5761 44186.01120
701.7697 44224.32870
701.9632 43917.03099
702.1568 44135.36494
702.3503 43963.08981
702.5438 43694.53966
702.7373 43227.86902
702.9308 43970.23722
703.1242 44060.12257
703.3177 43696.89483
703.5111 44112.83728
703.7045 44169.01306
703.8979 44291.33824
704.0913 44104.25629
704.2847 44355.78781
704.4780 44616.04368
704.6713 43553.35270
704.8647 43918.05497
705.0580 43745.39073
705.2513 43157.35746
705.4445 43772.95639
705.6378 43710.28854
705.8311 42911.37593
706.0243 42996.63287
706.2175 43557.26432
706.4107 43413.88603
706.6039 43354.84309
706.7971 43336.80048
706.9902 43571.12907
707.1834 43346.58977
707.3765 42932.57241
707.5696 42949.14048
707.7627 43196.63750
707.9558 43191.12847
708.1489 42730.27406
708.3419 42278.00064
708.5349 42499.40654
708.7280 42434.42449
708.9210 43138.70047
709.1140 43009.16644
709.3069 42685.38258
709.4999 42505.69380
709.6929 42855.15919
709.8858 42471.36985
710.0787 42578.04854
710.2716 41879.24064
710.4645 42491.52186
710.6574 42529.45024
710.8502 42778.17605
711.0431 42293.81096
711.2359 42031.85528
711.4287 41983.46177
711.6215 42236.83647
711.8143 42196.14333
712.0071 42123.39948
712.1998 41954.46254
712.3925 42245.47890
712.5853 42449.51802
712.7780 42465.43074
712.9707 42134.92954
713.1633 42195.63134
713.3560 42157.64152
713.5487 42056.26706
713.7413 42195.44702
713.9339 42092.53659
714.1265 41836.92961
714.3191 41907.46165
714.5117 41376.13664
714.7042 41734.40829
714.8968 41854.09159
715.0893 42478.39438
715.2818 42378.51495
715.4743 42385.94907
715.6668 41944.05885
715.8592 42298.02977
716.0517 41946.27066
716.2441 42123.93195
716.4366 41743.37840
716.6290 41912.39726
716.8214 41967.48762
717.0137 42029.70491
717.2061 41926.15961
717.3984 41836.45858
717.5908 41513.18671
717.7831 41274.63931
717.9754 41838.28127
718.1677 40846.28617
718.3600 41541.46916
718.5522 41170.23386
718.7445 41109.45015
718.9367 40851.32417
719.1289 41034.12586
719.3211 40900.80309
719.5133 40954.54179
719.7054 40897.05531
719.8976 41180.24843
720.0897 41111.96915
720.2818 41057.57510
720.4740 41083.78910
720.6660 41101.99554
720.8581 41034.16682
721.0502 40736.10545
721.2422 40557.27682
721.4343 40754.08661
721.6263 40931.09255
721.8183 40769.05726
722.0103 41233.39322
722.2022 40953.29253
722.3942 41234.74488
722.5861 40880.09813
722.7781 41368.68203
722.9700 40962.63127
723.1619 40733.52501
723.3538 40605.48600
723.5456 40736.28976
723.7375 40471.07781
723.9293 40631.65904
724.1211 40301.58792
724.3129 40357.78418
724.5047 39832.86931
724.6965 39918.65872
724.8883 40153.86793
725.0800 39967.54373
725.2718 40314.01909
725.4635 39928.57089
725.6552 39804.07487
725.8469 39992.54943
726.0385 40362.98602
726.2302 40076.39327
726.4218 39335.84777
726.6135 39438.28717
726.8051 39383.74976
726.9967 39729.07825
727.1882 39915.97588
727.3798 40191.07952
727.5714 39920.37901
727.7629 40256.65548
727.9544 40238.42856
728.1459 39616.76765
728.3374 39416.70158
728.5289 40173.52843
728.7204 39690.06445
728.9118 40183.66588
729.1032 40421.84464
729.2946 40099.98587
729.4860 39388.48057
729.6774 39686.19379
729.8688 39749.43506
730.0602 39483.73160
730.2515 39694.20135
730.4428 39924.35207
730.6341 39645.23441
730.8254 39493.91000
731.0167 39907.78401
731.2080 39909.75006
731.3992 39727.15316
731.5905 39630.20232
731.7817 39619.30713
731.9729 39026.05154
732.1641 39346.14906
732.3553 38844.88822
732.5464 39230.31594
732.7376 39155.29885
732.9287 39230.93033
733.1198 39258.86463
733.3109 39296.69061
733.5020 38998.99787
733.6931 39627.17133
733.8841 39449.10045
734.0752 39732.31404
734.2662 39221.91927
734.4572 39147.51657
734.6482 38658.40019
734.8392 38711.40162
735.0302 38583.50597
735.2211 38382.08825
735.4120 38278.23575
735.6030 38776.83422
735.7939 38644.55592
735.9848 38693.97341
736.1756 38276.96601
736.3665 38495.89387
736.5574 38090.78517
736.7482 38125.23201
736.9390 37936.26593
737.1298 38280.81619
737.3206 38407.89265
737.5114 38618.46480
737.7021 38086.44348
737.8929 38103.50306
738.0836 38294.02559
738.2743 38486.96473
738.4650 38479.91971
738.6557 38183.68103
738.8463 37874.04864
739.0370 37879.33240
739.2276 37627.49368
739.4182 37613.48557
739.6088 37926.47664
739.7994 37674.16689
739.9900 37801.81678
740.1806 37791.57694
740.3711 37911.79270
740.5617 38174.60853
740.7522 37955.92643
740.9427 37947.22256
741.1332 37969.38158
741.3236 37551.22732
741.5141 37751.12955
741.7045 38036.28872
741.8949 38051.38225
742.0854 37853.95807
742.2758 37995.61606
742.4661 37426.75178
742.6565 36953.87580
742.8469 37191.13298
743.0372 37580.39040
743.2275 37163.54684
743.4178 37454.07169
743.6081 37498.22589
743.7984 37475.80064
743.9886 37537.69025
744.1789 37355.54391
744.3691 37128.03506
744.5593 37126.39669
744.7495 36796.32556
744.9397 37057.62590
745.1299 36832.57461
745.3200 36278.98818
745.5102 36627.53198
745.7003 36647.64303
745.8904 36825.95967
746.0805 36882.21737
746.2706 36762.22688
746.4607 36846.91039
746.6507 36797.84106
746.8408 36396.23439
747.0308 36823.62499
747.2208 36408.41980
747.4108 36600.00728
747.6007 36761.20290
747.7907 37091.90889
747.9806 36797.61578
748.1706 36816.23182
748.3605 36527.95974
748.5504 36433.54838
748.7403 36869.88860
748.9302 36321.70881
749.1200 36367.27611
749.3098 36311.75568
749.4997 36009.96700
749.6895 36185.49840
749.8793 36135.83516
750.0691 36642.17496
750.2588 36249.94798
750.4486 36056.90645
750.6383 36151.50212
750.8280 35600.70093
751.0177 35527.58844
751.2074 35618.80497
751.3971 35756.98142
751.5868 35722.20691
751.7764 35543.99267
751.9660 35304.27793
752.1557 35413.59850
752.3453 35584.44006
752.5348 35798.16608
752.7244 36059.42545
752.9140 36096.24793
753.1035 35805.21109
753.2930 35868.61620
753.4825 35536.61999
753.6720 35746.98734
753.8615 35791.89929
754.0510 35379.88894
754.2404 35434.85642
754.4299 35437.06823
754.6193 35390.51790
754.8087 35223.52652
754.9981 35331.41352
755.1875 35053.03313
755.3768 34905.45650
755.5662 35050.10453
755.7555 35092.78420
755.9448 35112.17846
756.1341 35023.39902
756.3234 34583.94588
756.5127 34626.03164
756.7019 34955.57029
756.8912 35030.60787
757.0804 34834.88349
757.2696 34921.41017
757.4588 34638.60617
757.6480 34394.54973
757.8371 34085.90036
758.0263 34167.65527
758.2154 34295.40757
758.4045 33904.57321
758.5936 33761.09252
758.7827 34150.47282
758.9718 34374.25436
759.1609 34027.45133
759.3499 34033.67716
759.5389 33574.99360
759.7280 33905.18760
759.9170 34059.01053
760.1059 33975.12573
760.2949 33894.80440
760.4839 34223.99490
760.6728 33998.30874
760.8617 33927.46950
761.0506 33574.60448
761.2395 33244.43096
761.4284 33588.87883
761.6173 33453.20090
761.8061 33480.74608
761.9950 33458.44370
762.1838 33157.71997
762.3726 33620.37659
762.5614 33248.71122
762.7502 33608.92844
762.9389 32914.03216
763.1277 33073.36413
763.3164 33494.01691
763.5051 33290.26450
763.6938 33578.98714
763.8825 33231.71308
764.0712 33884.09352
764.2598 33393.97364
764.4484 33616.34209
764.6371 33665.37046
764.8257 33411.89337
765.0143 33590.51720
765.2029 33166.91535
765.3914 33252.15180
765.5800 33526.00619
765.7685 33026.11749
765.9570 33106.80746
766.1455 32616.15511
766.3340 32350.55404
766.5225 32618.38740
766.7110 32628.56580
766.8994 32280.90263
767.0878 32029.71926
767.2762 32364.54167
767.4646 32256.47036
767.6530 32275.57791
767.8414 32407.54901
768.0298 32059.16905
768.2181 31987.42870
768.4064 32032.09490
768.5947 32075.83951
768.7830 32045.34526
768.9713 31970.47152
769.1596 31684.88228
769.3478 31591.94546
769.5360 31802.45617
769.7243 31740.89423
769.9125 31460.17915
770.1007 31193.26738
770.2888 31228.77916
770.4770 31343.50637
770.6651 31298.69681
770.8533 31065.51509
771.0414 30857.81010
771.2295 31106.92502
771.4176 31312.70492
771.6056 31401.36149
771.7937 31140.16355
771.9817 30843.24904
772.1698 31399.76407
772.3578 31349.17924
772.5458 30954.08511
772.7337 30487.61927
772.9217 30872.61691
773.1096 30653.09514
773.2976 30941.96114
773.4855 31205.84191
773.6734 30524.68750
773.8613 30598.63965
774.0492 30764.23841
774.2370 30575.21089
774.4249 30642.22043
774.6127 30870.81470
774.8005 30645.10807
774.9883 30675.21321
775.1761 30781.42087
775.3639 30287.12313
775.5516 30356.81550
775.7394 30148.82380
775.9271 30234.85897
776.1148 30229.98480
776.3025 29590.05600
776.4902 29713.48708
776.6778 29626.67369
776.8655 30029.38626
777.0531 30209.13648
777.2407 30185.83059
777.4283 29834.95211
777.6159 29914.16754
777.8035 29691.79909
777.9911 29540.20845
778.1786 29753.60679
778.3661 29271.24871
778.5536 29637.36408
778.7411 29653.60447
778.9286 29952.05496
779.1161 29650.28677
779.3036 29293.55109
779.4910 29371.72206
779.6784 29476.61902
779.8658 29666.83435
780.0532 29105.71140
780.2406 29424.72349
780.4280 29151.52446
780.6153 29313.43687
780.8026 29299.94075
780.9900 29481.98469
781.1773 28901.07836
781.3646 29314.46085
781.5518 29107.26785
781.7391 28974.82571
781.9263 29083.83909
782.1136 28917.99458
782.3008 28557.92071
782.4880 28727.88164
782.6752 28565.43676
782.8623 28600.51846
783.0495 28939.68257
783.2366 28349.17126
783.4237 28442.80439
783.6108 28815.80094
783.7979 28536.96999
783.9850 28601.56293
784.1721 28807.58858
784.3591 28304.23883
784.5462 28199.32139
784.7332 28337.10872
784.9202 28510.38736
785.1072 28075.64455
785.2941 27998.53853
785.4811 27834.82391
785.6681 28049.16432
785.8550 28085.10617
786.0419 27829.99070
786.2288 27693.10447
786.4157 27556.07488
786.6025 27536.33246
786.7894 27736.97196
786.9762 27602.80953
787.1631 27070.95204
787.3499 27416.38293
787.5367 27528.91882
787.7234 27155.45123
787.9102 27464.20300
788.0970 27524.26993
788.2837 27614.89254
788.4704 27063.27216
788.6571 26748.08977
788.8438 26747.72114
789.0305 26700.55642
789.2171 26659.26937
789.4038 26570.14177
789.5904 26741.65915
789.7770 26764.94455
789.9636 26790.89232
790.1502 26857.22603
790.3368 26861.32196
790.5233 27016.80375
790.7099 26681.42839
790.8964 26223.78929
791.0829 26249.20458
791.2694 26120.55119
791.4559 26214.73727
791.6423 26141.60430
791.8288 26260.03834
792.0152 26410.15445
792.2016 26433.33745
792.3880 26637.68378
792.5744 26185.96331
792.7608 25770.32805
792.9471 25780.30166
793.1335 26373.55725
793.3198 26040.22985
793.5061 26105.10950
793.6924 25606.63391
793.8787 25526.53785
794.0650 25556.74539
794.2512 25937.03271
794.4375 25985.24189
794.6237 26081.45546
794.8099 26026.89758
794.9961 25536.49098
795.1823 25485.94711
795.3684 25538.78470
795.5546 25176.41711
795.7407 25213.99734
795.9268 25127.65498
796.1129 25435.81283
796.2990 25498.58308
796.4851 25820.89240
796.6712 25552.03506
796.8572 25494.54858
797.0432 25180.12394
797.2292 25501.38879
797.4152 25457.60322
797.6012 24938.27931
797.7872 24746.67135
797.9731 24791.72666
798.1591 24593.83144
798.3450 24528.78795
798.5309 24729.81657
798.7168 24722.40292
798.9027 24670.65075
799.0885 24902.43985
799.2744 24715.33743
799.4602 25020.81245
799.6460 24939.75384
799.8318 25406.36304
800.0176 24830.53567
800.2034 24968.32301
800.3892 24436.40408
800.5749 24355.40692
800.7606 24252.29169
800.9463 24486.25164
801.1320 24400.97422
801.3177 24438.41109
801.5034 24337.48719
801.6890 24710.15607
801.8747 24221.40833
802.0603 23929.83901
802.2459 23891.25528
802.4315 24006.35113
802.6171 23705.13588
802.8026 24002.84910
802.9882 23909.76892
803.1737 23671.65159
803.3592 23970.14304
803.5447 23865.04128
803.7302 24146.10451
803.9157 24002.84910
804.1012 24085.44368
804.2866 23560.69265
804.4720 23607.91881
804.6574 23538.94322
804.8428 23425.50623
805.0282 23443.38500
805.2136 23244.85491
805.3989 23542.95724
805.5843 23357.08359
805.7696 23293.37129
805.9549 23156.62841
806.1402 22977.30827
806.3255 22897.06885
806.5107 23131.66367
806.6960 23330.70576
806.8812 22849.96557
807.0664 23052.57112
807.2516 22781.87061
807.4368 22586.59679
807.6220 22421.94010
807.8072 22506.76697
807.9923 22659.15632
808.1774 22550.94165
808.3625 22782.23925
808.5476 22774.90752
808.7327 22896.94597
808.9178 22496.11753
809.1028 22449.77200
809.2879 22330.41638
809.4729 22323.16657
809.6579 22124.75936
809.8429 22287.08136
810.0279 22226.54340
810.2128 22007.94322
810.3978 22157.24014
810.5827 22327.85642
810.7676 22426.71187
810.9525 22522.67969
811.1374 22247.10501
811.3223 22241.65741
811.5072 22025.18712
811.6920 22139.09514
811.8768 22175.69234
812.0616 22045.44153
812.2464 22104.68926
812.4312 21887.23594
812.6160 21999.68991
812.8007 22134.28241
812.9855 22115.62542
813.1702 21902.32947
813.3549 21884.36879
813.5396 21520.13754
813.7243 21644.32637
813.9089 21656.36843
814.0936 21736.77168
814.2782 21748.99805
814.4628 21585.48823
814.6474 21638.55110
814.8320 21598.51331
815.0166 21286.64863
815.2012 21434.20478
815.3857 21282.34789
815.5702 21256.15437
815.7547 21292.62870
815.9392 21403.40332
816.1237 21167.33397
816.3082 20985.22859
816.4926 21132.82569
816.6771 21260.65990
816.8615 20969.43875
817.0459 21147.77587
817.2303 20986.21161
817.4147 21126.31315
817.5990 21139.31775
817.7834 20833.35122
817.9677 20900.34028
818.1520 21083.28533
818.3363 20953.36219
818.5206 20721.65501
818.7049 20629.29162
818.8891 20684.75061
819.0734 20810.63925
819.2576 20886.35265
819.4418 20513.29467
819.6260 20475.57108
819.8102 20533.22140
819.9944 20525.17289
820.1785 20305.91735
820.3627 20476.47219
820.5468 20460.02700
820.7309 20210.87112
820.9150 19998.29197
821.0991 19840.70077
821.2831 20188.24107
821.4672 20069.90943
821.6512 19966.05694
821.8352 19960.24071
822.0192 20252.46537
822.2032 20001.20008
822.3872 20055.02070
822.5711 19824.17366
822.7551 19722.55345
822.9390 19762.24309
823.1229 19865.09208
823.3068 19849.54800
823.4907 19621.56811
823.6745 19621.01516
823.8584 19495.00365
824.0422 19645.63175
824.2261 19694.53724
824.4099 19736.25436
824.5937 19871.54318
824.7774 19871.64558
824.9612 19765.72463
825.1449 19471.86160
825.3287 19534.61136
825.5124 19495.02412
825.6961 19709.83557
825.8798 19596.93105
826.0634 19663.67435
826.2471 19515.27854
826.4307 19747.82539
826.6144 19540.79623
826.7980 19674.95866
826.9816 19493.59055
827.1652 19632.09467
827.3487 19511.51027
827.5323 19154.13973
827.7158 19010.53616
827.8993 19332.16965
828.0828 19103.18626
828.2663 18857.77817
828.4498 19060.91619
828.6333 19221.37454
828.8167 18966.62771
829.0001 19063.04608
829.1836 19156.47441
829.3670 19064.00862
829.5504 19332.37445
829.7337 19176.62642
829.9171 19105.50047
830.1004 19141.81095
830.2837 19100.72870
830.4671 18885.75342
830.6504 18736.25170
830.8336 18860.52245
831.0169 18665.41246
831.2002 19053.74830
831.3834 18903.22260
831.5666 18656.21708
831.7498 18671.63829
831.9330 19007.07509
832.1162 18900.68311
832.2993 18781.85997
832.4825 18882.16948
832.6656 18680.58791
832.8487 18293.64470
833.0318 18443.65841
833.2149 18316.04948
833.3980 18352.03229
833.5811 18479.29306
833.7641 18396.82136
833.9471 18266.71391
834.1301 18060.83161
834.3131 17904.75591
834.4961 18099.94781
834.6791 18129.64336
834.8620 18490.94601
835.0450 18369.33762
835.2279 18433.17281
835.4108 18381.40016
835.5937 18449.41320
835.7766 18194.93260
835.9594 18159.56418
836.1423 18188.15383
836.3251 18467.37389
836.5079 18388.28133
836.6907 17948.82820
836.8735 17882.10538
837.0563 17889.49854
837.2390 17996.32059
837.4218 17859.39340
837.6045 18166.56824
837.7872 18188.07191
837.9699 18023.06707
838.1526 17807.64123
838.3352 17784.43775
838.5179 17742.39295
838.7005 17794.30896
838.8831 17918.33394
839.0658 17896.64595
839.2483 17905.57510
839.4309 17986.75658
839.6135 17967.93575
839.7960 17531.10401
839.9786 17604.33937
840.1611 17478.14354
840.3436 17695.06439
840.5261 17459.65038
840.7085 17373.88145
840.8910 17236.76994
841.0734 17239.73950
841.2559 17201.77016
841.4383 17362.14659
841.6207 17543.35087
841.8030 17358.74696
841.9854 17327.59736
842.1678 17129.23110
842.3501 17284.52858
842.5324 17147.76522
842.7147 17340.17189
842.8970 17513.90107
843.0793 17457.70481
843.2615 17406.34176
843.4438 17410.80633
843.6260 17376.54381
843.8082 17284.34426
843.9904 17388.54491
844.1726 17162.40820
844.3548 17078.07285
844.5369 16999.43085
844.7191 17018.08784
844.9012 16914.03055
845.0833 16905.12188
845.2654 17209.20428
845.4475 17331.26322
845.6296 17042.06955
845.8116 16962.19877
845.9936 16904.87613
846.1757 16965.22977
846.3577 16936.86540
846.5397 16936.29197
846.7216 16785.45907
846.9036 16714.18976
847.0855 16487.52058
847.2675 16675.48315
847.4494 16624.59112
847.6313 16891.09330
847.8132 16951.89749
847.9950 16826.15221
848.1769 16757.62718
848.3587 16938.89289
848.5406 16703.06929
848.7224 16641.58927
848.9042 16540.93160
849.0860 16636.61270
849.2677 16462.22816
849.4495 16395.28006
849.6312 16359.35869
849.8129 16447.09367
849.9946 16582.81256
850.1763 16460.42595
850.3580 16313.60707
850.5397 16230.25474
850.7213 15966.61972
850.9029 16015.09515
851.0845 16165.10886
851.2661 16164.55590
851.4477 16139.22253
851.6293 16160.89004
851.8109 16126.99616
851.9924 16256.50970
852.1739 16316.33087
852.3554 16192.14204
852.5369 16075.03919
852.7184 15922.58840
852.8999 15912.57383
853.0813 15891.00872
853.2628 15947.73745
853.4442 15992.71085
853.6256 15949.13007
853.8070 16108.38012
853.9883 16093.22515
854.1697 15932.99208
854.3510 15782.01582
854.5324 15842.12370
854.7137 15794.38555
854.8950 15750.14943
855.0763 15715.76403
855.2575 15736.69427
855.4388 15778.69811
855.6200 15772.61565
855.8013 15795.14330
855.9825 15702.02216
856.1637 15707.51072
856.3449 15602.36800
856.5260 15646.76797
856.7072 15635.70893
856.8883 15826.33387
857.0694 15747.79426
857.2505 15749.14592
857.4316 15721.72362
857.6127 15574.39275
857.7938 15718.36495
857.9748 15711.77049
858.1558 15566.75383
858.3368 15466.79247
858.5178 15422.43347
858.6988 15536.17765
858.8798 15448.74987
859.0607 15616.02795
859.2417 15438.01851
859.4226 15443.93714
859.6035 15475.53730
859.7844 15547.74868
859.9653 15457.71997
860.1462 15281.04171
860.3270 15200.37222
860.5078 15142.55806
860.6887 15189.08791
860.8695 15126.17431
861.0503 15204.12000
861.2310 14961.72242
861.4118 14934.95547
861.5925 14885.21031
861.7733 14801.05927
861.9540 14667.08115
862.1347 14557.45339
862.3154 14513.11486
862.4960 14647.37970
862.6767 14643.87767
862.8573 14556.61372
863.0380 14550.92037
863.2186 14639.90461
863.3992 14591.53159
863.5797 14536.52315
863.7603 14552.29251
863.9409 14481.76046
864.1214 14561.09877
864.3019 14626.36754
864.4824 14599.62106
864.6629 14477.43925
864.8434 14258.61379
865.0238 14400.88618
865.2043 14463.14443
865.3847 14116.60763
865.5651 14045.97319
865.7455 14268.40308
865.9259 14266.39607
866.1063 14145.29968
866.2866 14085.51947
866.4670 14138.58234
866.6473 14015.86805
866.8276 13977.48912
867.0079 13902.90210
867.1882 13852.23535
867.3684 13710.24968
867.5487 13694.78751
867.7289 13710.04488
867.9091 13749.40684
868.0893 13588.51841
868.2695 13383.45530
868.4497 13309.35979
868.6299 13422.07999
868.8100 13487.26684
868.9901 13398.36451
869.1703 13521.61127
869.3504 13537.21680
869.5304 13477.82570
869.7105 13563.55367
869.8906 13489.15097
870.0706 13437.52168
870.2506 13553.39575
870.4306 13556.91825
870.6106 13507.50077
870.7906 13611.35326
870.9706 13460.29509
871.1505 13301.37271
871.3305 13298.79227
871.5104 13165.12135
871.6903 13098.00942
871.8702 13224.92204
872.0500 13200.53073
872.2299 13223.75470
872.4097 13043.51297
872.5896 13103.27270
872.7694 13150.86749
872.9492 13020.20708
873.1290 12762.47022
873.3087 12817.88825
873.4885 13100.56938
873.6682 13020.22756
873.8480 12906.93393
874.0277 12927.61842
874.2074 12699.00367
874.3870 12802.09841
874.5667 12843.79506
874.7463 12943.42874
874.9260 12769.16708
875.1056 12733.79865
875.2852 12651.51127
875.4648 12582.76096
875.6444 12512.59755
875.8239 12711.61915
876.0035 12622.67587
876.1830 12616.57292
876.3625 12518.29090
876.5420 12519.00769
876.7215 12538.54531
876.9010 12300.40751
877.0804 12358.54934
877.2599 12272.32986
877.4393 12435.96256
877.6187 12448.59853
877.7981 12475.11972
877.9775 12321.52207
878.1568 12553.61836
878.3362 12414.37697
878.5155 12357.52536
878.6948 12131.65488
878.8741 12130.26226
879.0534 12067.98353
879.2327 12007.56846
879.4119 11987.53932
879.5912 11929.88900
879.7704 12045.86547
879.9496 12150.78291
880.1288 11998.37308
880.3080 11806.39649
880.4872 11975.78398
880.6663 11943.44655
880.8455 11973.71553
881.0246 11974.88287
881.2037 11971.48325
881.3828 11878.19827
881.5619 11825.62691
881.7409 11796.85295
881.9200 11654.06857
882.0990 11779.40426
882.2780 11748.54137
882.4570 11689.78515
882.6360 11687.79862
882.8150 11489.49380
882.9940 11432.82651
883.1729 11441.26414
883.3518 11672.72557
883.5308 11615.21860
883.7096 11627.17874
883.8885 11418.47025
884.0674 11379.29260
884.2463 11356.96974
884.4251 11387.30016
884.6039 11228.72594
884.7827 11285.65947
884.9615 11266.55192
885.1403 11295.73548
885.3191 11337.67788
885.4978 11115.26847
885.6765 11162.80183
885.8553 11296.51371
886.0340 11240.95231
886.2127 11160.67194
886.3913 11097.10299
886.5700 11024.21578
886.7486 10946.33153
886.9273 10865.68252
887.1059 10772.47946
887.2845 10798.65250
887.4630 10871.74451
887.6416 10944.14020
887.8202 10949.73116
887.9987 10919.35978
888.1772 10905.53599
888.3557 10899.78120
888.5342 10805.16504
888.7127 10881.71812
888.8912 10836.00745
889.0696 10794.94568
889.2481 10647.41001
889.4265 10572.96635
889.6049 10526.78465
889.7833 10550.74589
889.9616 10461.55685
890.1400 10469.13433
890.3183 10159.46098
890.4967 10297.26879
890.6750 10489.85978
890.8533 10432.68049
891.0316 10374.88681
891.2098 10306.17746
891.3881 10267.47085
891.5663 10237.28379
891.7445 10233.33121
891.9227 10085.50882
892.1009 10081.82248
892.2791 10260.69207
892.4573 10304.27285
892.6354 10163.96651
892.8136 10183.48365
892.9917 10162.65581
893.1698 10015.57069
893.3479 10157.10581
893.5259 10293.21382
893.7040 10160.21873
893.8820 10077.56271
894.0601 10070.21050
894.2381 10144.81800
894.4161 10173.01853
894.5941 10186.20745
894.7720 10174.08347
894.9500 10159.64529
895.1279 10243.12050
895.3058 10117.68241
895.4838 10125.46470
895.6616 9990.11444
895.8395 9922.79771
896.0174 9890.93131
896.1952 9920.44254
896.3731 9988.18935
896.5509 9946.06263
896.7287 9944.48570
896.9065 9884.19350
897.0842 9895.29349
897.2620 9842.06678
897.4397 9774.48381
897.6175 9789.88454
897.7952 9801.02549
897.9729 9958.67812
898.1506 9936.10950
898.3282 9821.42325
898.5059 9745.11594
898.6835 9751.58752
898.8611 9858.71677
899.0388 9716.34198
899.2163 9566.86074
899.3939 9524.87738
899.5715 9653.79701
899.7490 9630.94168
899.9266 9623.54851
900.1041 9703.52169
900.2816 9684.37319
900.4591 9589.38840
900.6365 9589.55223
900.8140 9471.50731
900.9914 9479.63775
901.1689 9467.34994
901.3463 9435.87266
901.5237 9433.12838
901.7011 9455.04165
901.8784 9397.90332
902.0558 9304.94602
902.2331 9367.38858
902.4104 9460.75548
902.5878 9451.02763
902.7650 9396.06015
902.9423 9322.64047
903.1196 9375.72382
903.2968 9505.66743
903.4741 9484.65527
903.6513 9378.77529
903.8285 9286.00230
904.0057 9308.30468
904.1828 9164.51680
904.3600 9058.65729
904.5371 9099.69859
904.7143 9141.53859
904.8914 9184.99649
905.0685 9285.18312
905.2456 9267.30435
905.4226 9262.51210
905.5997 9297.16373
905.7767 9345.57772
905.9537 9150.63157
906.1307 9094.68106
906.3077 9028.44975
906.4847 8986.46640
906.6617 8979.31898
906.8386 9052.94346
907.0156 8965.43376
907.1925 8896.15097
907.3694 8868.19620
907.5463 8919.62070
907.7231 8941.16533
907.9000 8940.83765
908.0768 8904.79340
908.2537 8746.13726
908.4305 8788.98077
908.6073 8945.17935
908.7841 8939.13784
908.9608 8802.92744
909.1376 8775.73041
909.3143 8747.38652
909.4910 8689.94100
909.6677 8666.65560
909.8444 8717.52714
910.0211 8747.91900
910.1978 8654.94121
910.3744 8683.40798
910.5510 8742.75811
910.7277 8759.24426
910.9043 8671.73456
911.0808 8706.83674
911.2574 8669.97330
911.4340 8597.31137
911.6105 8465.91370
911.7870 8503.02289
911.9636 8510.19078
912.1401 8451.04545
912.3165 8545.29297
912.4930 8482.72752
912.6695 8399.96910
912.8459 8385.83812
913.0223 8389.70878
913.1987 8409.20544
913.3751 8341.62247
913.5515 8261.11682
913.7279 8307.21660
913.9042 8298.38985
914.0805 8259.41701
914.2568 8215.40616
914.4331 8204.73624
914.6094 8190.95341
914.7857 8163.85879
914.9620 8142.60087
915.1382 8096.60349
915.3144 8028.38565
915.4906 8167.74993
915.6668 8214.32074
915.8430 8097.97563
916.0192 7913.41269
916.1953 8040.65299
916.3715 8108.29740
916.5476 8021.32016
916.7237 8052.79744
916.8998 8053.92382
917.0759 7987.24196
917.2519 7942.16617
917.4280 8009.09379
917.6040 7996.60118
917.7800 7983.73994
917.9560 7948.18720
918.1320 7923.14054
918.3080 7919.22892
918.4839 7834.93453
918.6599 7793.85227
918.8358 7860.30886
919.0117 7882.03781
919.1876 7794.79434
919.3635 7770.07536
919.5394 7877.36844
919.7152 7804.46075
919.8911 7742.30490
920.0669 7712.50695
920.2427 7626.55371
920.4185 7579.06131
920.5942 7568.00228
920.7700 7532.32666
920.9458 7625.71404
921.1215 7619.97973
921.2972 7592.12735
921.4729 7605.25483
921.6486 7455.28208
921.8243 7310.73645
921.9999 7341.23070
922.1756 7366.23640
922.3512 7381.90336
922.5268 7309.03663
922.7024 7414.77326
922.8780 7459.00938
923.0535 7466.32063
923.2291 7416.00204
923.4046 7441.92932
923.5801 7560.97775
923.7557 7464.37506
923.9311 7401.40002
924.1066 7366.33880
924.2821 7448.27803
924.4575 7405.55740
924.6330 7374.10060
924.8084 7262.42486
924.9838 7195.86588
925.1592 7188.94374
925.3345 7177.84375
925.5099 7192.17953
925.6852 7170.38915
925.8606 7121.27886
926.0359 7089.96541
926.2112 7062.03112
926.3864 7055.41618
926.5617 6951.97328
926.7370 6978.39208
926.9122 6918.71427
927.0874 6889.98127
927.2626 6876.50563
927.4378 6896.02277
927.6130 6867.78128
927.7882 6827.35438
927.9633 6798.10939
928.1384 6704.16906
928.3135 6623.84773
928.4886 6577.93227
928.6637 6618.93260
928.8388 6636.85233
929.0139 6649.63165
929.1889 6602.75365
929.3639 6584.11713
929.5389 6614.11988
929.7139 6590.34296
929.8889 6606.82911
930.0639 6641.80841
930.2388 6569.53560
930.4138 6510.71793
930.5887 6541.33507
930.7636 6612.62486
930.9385 6579.79592
931.1134 6426.62834
931.2882 6412.70215
931.4631 6363.12082
931.6379 6334.40830
931.8127 6324.90573
931.9875 6339.03671
932.1623 6313.76478
932.3371 6326.72842
932.5118 6313.15039
932.6866 6297.87254
932.8613 6264.57257
933.0360 6244.37960
933.2107 6187.97854
933.3854 6144.15201
933.5600 6158.75402
933.7347 6050.33456
933.9093 6049.92496
934.0839 6079.31332
934.2586 6091.33489
934.4331 6084.84283
934.6077 6017.71042
934.7823 5998.64383
934.9568 6011.36171
935.1314 5999.46301
935.3059 5971.71304
935.4804 5901.48819
935.6549 5936.77469
935.8293 5940.13336
936.0038 5905.21549
936.1782 5920.02231
936.3526 5938.10587
936.5271 5859.19763
936.7015 5791.69658
936.8758 5817.74675
937.0502 5817.31667
937.2246 5812.74970
937.3989 5873.12382
937.5732 5810.21022
937.7475 5753.60437
937.9218 5747.89053
938.0961 5706.80828
938.2703 5716.59757
938.4446 5695.11438
938.6188 5721.71749
938.7930 5651.16497
938.9672 5605.78198
939.1414 5640.57697
939.3156 5585.97812
939.4897 5503.89554
939.6639 5482.18707
939.8380 5506.78317
940.0121 5513.45955
940.1862 5548.54125
940.3603 5562.50840
940.5344 5567.05489
940.7084 5577.41761
940.8824 5557.47040
941.0565 5568.16080
941.2305 5519.15290
941.4045 5419.00723
941.5784 5410.61056
941.7524 5432.03231
941.9263 5483.43633
942.1003 5490.68614
942.2742 5454.92860
942.4481 5357.58865
942.6220 5346.81633
942.7958 5375.20118
942.9697 5390.92958
943.1435 5388.41058
943.3174 5376.08181
943.4912 5344.93220
943.6650 5334.11893
943.8387 5292.42228
944.0125 5211.15888
944.1863 5261.51843
944.3600 5248.14520
944.5337 5209.60243
944.7074 5238.80646
944.8811 5217.87622
945.0548 5157.72738
945.2284 5104.84882
945.4021 5087.03150
945.5757 5139.02942
945.7493 5073.74018
945.9229 4968.45411
946.0965 4941.21612
946.2701 4918.99566
946.4436 4948.32257
946.6172 4956.53493
946.7907 4956.59637
946.9642 4950.80062
947.1377 4952.80762
947.3112 4953.85209
947.4847 4967.20485
947.6581 4996.30648
947.8315 4978.61203
948.0050 4898.31118
948.1784 4889.03388
948.3518 4920.24492
948.5251 4890.87705
948.6985 4914.34677
948.8718 4919.40525
949.0452 4852.66195
949.2185 4863.24995
949.3918 4819.23910
949.5651 4842.50403
949.7383 4763.22716
949.9116 4785.22234
950.0848 4783.70685
950.2581 4792.22640
950.4313 4807.79096
950.6045 4846.04701
950.7776 4814.36494
950.9508 4773.77420
951.1239 4722.57498
951.2971 4682.70103
951.4702 4684.50324
951.6433 4649.46249
951.8164 4648.93002
951.9895 4666.31728
952.1625 4612.23042
952.3356 4642.80660
952.5086 4596.66586
952.6816 4638.56730
952.8546 4607.09002
953.0276 4593.02048
953.2006 4587.10185
953.3735 4568.71109
953.5465 4566.17160
953.7194 4559.16755
953.8923 4531.02846
954.0652 4559.78194
954.2381 4504.71206
954.4109 4458.07981
954.5838 4446.36543
954.7566 4421.99460
954.9294 4393.20016
955.1022 4431.66102
955.2750 4419.45512
955.4478 4413.14738
955.6206 4418.49258
955.7933 4439.48426
955.9660 4423.28482
956.1388 4414.82671
956.3115 4362.17344
956.4841 4328.58675
956.6568 4281.52443
956.8295 4283.83863
957.0021 4275.33956
957.1747 4286.56243
957.3473 4254.98275
957.5199 4231.14440
957.6925 4265.50931
957.8651 4281.44251
958.0376 4306.77588
958.2102 4248.98220
958.3827 4293.68936
958.5552 4324.85945
958.7277 4300.22238
958.9001 4252.93478
959.0726 4184.57359
959.2450 4154.59133
959.4175 4162.43505
959.5899 4090.98142
959.7623 4089.15872
959.9347 4067.73697
960.1070 4031.22169
960.2794 4034.96947
960.4517 4032.88054
960.6241 4037.50895
960.7964 4073.02073
960.9687 4098.00595
961.1409 4064.78790
961.3132 4029.27612
961.4855 3980.90310
961.6577 3969.78262
961.8299 3996.36526
962.0021 3976.17229
962.1743 3945.53467
962.3465 3898.63619
962.5186 3916.45352
962.6908 3921.16385
962.8629 3893.63915
963.0350 3886.12310
963.2071 3889.76849
963.3792 3865.97109
963.5513 3851.12332
963.7233 3885.42679
963.8954 3870.68142
964.0674 3849.97645
964.2394 3846.10579
964.4114 3817.63903
964.5834 3810.67593
964.7553 3816.98368
964.9273 3828.16559
965.0992 3771.72357
965.2711 3802.58646
965.4430 3787.26765
965.6149 3793.84163
965.7868 3752.12451
965.9587 3722.20368
966.1305 3759.66103
966.3023 3761.95476
966.4741 3775.40991
966.6459 3726.13578
966.8177 3753.55808
966.9895 3729.98596
967.1613 3700.51569
967.3330 3706.12713
967.5047 3674.21977
967.6764 3681.24431
967.8481 3666.04838
968.0198 3644.83142
968.1915 3619.19085
968.3631 3638.05265
968.5347 3617.94159
968.7064 3619.04750
968.8780 3608.72573
969.0496 3629.16446
969.2211 3595.80305
969.3927 3613.62038
969.5642 3580.58664
969.7358 3556.85069
969.9073 3525.39389
970.0788 3574.29938
970.2503 3584.64162
970.4217 3571.26839
970.5932 3550.17431
970.7646 3543.98944
970.9360 3547.90106
971.1074 3546.09885
971.2788 3585.31745
971.4502 3562.01157
971.6216 3525.14813
971.7929 3495.08395
971.9643 3465.42936
972.1356 3493.15886
972.3069 3491.37712
972.4782 3481.66975
972.6494 3447.44820
972.8207 3454.14505
972.9919 3430.88013
973.1632 3408.04528
973.3344 3372.47206
973.5056 3346.97485
973.6768 3362.19126
973.8479 3396.45377
974.0191 3416.91298
974.1902 3399.05469
974.3614 3365.16081
974.5325 3374.06948
974.7036 3356.90750
974.8746 3344.47633
975.0457 3333.43778
975.2167 3314.06399
975.3878 3299.21622
975.5588 3310.45957
975.7298 3305.56492
975.9008 3274.96827
976.0718 3275.66458
976.2427 3257.29430
976.4137 3232.78011
976.5846 3241.64782
976.7555 3223.68713
976.9264 3226.26757
977.0973 3222.43787
977.2682 3243.61387
977.4390 3238.73970
977.6098 3259.77234
977.7807 3258.74835
977.9515 3268.61956
978.1223 3263.58156
978.2930 3228.62273
978.4638 3200.15597
978.6346 3165.60674
978.8053 3136.58702
978.9760 3131.42614
979.1467 3118.60585
979.3174 3126.12190
979.4881 3127.96507
979.6587 3139.12650
979.8294 3130.77079
980.0000 3098.45384
980.1706 3095.97580
980.3412 3074.82028
980.5118 3064.37564
980.6824 3061.32417
980.8529 3087.70200
981.0235 3085.26492
981.1940 3090.95827
981.3645 3055.22122
981.5350 3059.74723
981.7055 3036.29799
981.8759 3044.63322
982.0464 3045.82104
982.2168 3032.77548
982.3872 3046.88599
982.5576 3036.70758
982.7280 3037.83397
982.8984 3029.04818
983.0687 3020.34431
983.2391 3009.92015
983.4094 2994.23271
983.5797 2972.56520
983.7500 2967.28144
983.9203 2944.91762
984.0906 2966.66705
984.2608 2930.47944
984.4311 2960.03163
984.6013 2929.84457
984.7715 2963.02167
984.9417 2969.94380
985.1119 2936.74623
985.2820 2908.99625
985.4522 2901.35733
985.6223 2919.13370
985.7924 2907.23500
985.9625 2912.12964
986.1326 2945.65489
986.3027 2915.03776
986.4727 2910.81894
986.6428 2910.59367
986.8128 2890.76933
986.9828 2865.66123
987.1528 2871.43650
987.3228 2882.06546
987.4928 2884.72782
987.6627 2868.46695
987.8327 2878.68631
988.0026 2855.35995
988.1725 2831.80831
988.3424 2825.64392
988.5123 2822.87917
988.6821 2816.53046
988.8520 2829.80130
989.0218 2795.66166
989.1916 2830.00610
989.3614 2779.87182
989.5312 2778.31537
989.7010 2763.11944
989.8707 2770.30781
990.0405 2755.93107
990.2102 2766.94914
990.3799 2752.83863
990.5496 2738.17518
990.7193 2737.33551
990.8890 2734.85747
991.0586 2725.62113
991.2283 2736.55728
991.3979 2719.25195
991.5675 2724.76098
991.7371 2702.95012
991.9067 2707.27133
992.0762 2677.61674
992.2458 2677.39147
992.4153 2702.99107
992.5848 2711.96118
992.7543 2719.86634
992.9238 2700.26728
993.0933 2682.77762
993.2627 2683.57633
993.4322 2671.41140
993.6016 2678.72265
993.7710 2652.81584
993.9404 2662.99425
994.1098 2637.82471
994.2792 2642.26880
994.4485 2616.60775
994.6179 2627.58487
994.7872 2640.42563
994.9565 2638.23430
995.1258 2634.42508
995.2951 2631.49649
995.4643 2640.69187
995.6336 2641.30626
995.8028 2621.35904
995.9720 2595.14504
996.1412 2598.09412
996.3104 2607.22806
996.4796 2606.40887
996.6487 2600.28544
996.8179 2601.18655
996.9870 2605.18009
997.1561 2580.97310
997.3252 2574.76775
997.4943 2543.45431
997.6634 2551.23659
997.8324 2556.88898
998.0014 2560.14525
998.1705 2534.13605
998.3395 2516.62592
998.5085 2496.45343
998.6774 2500.01689
998.8464 2481.11414
999.0153 2496.28959
999.1843 2516.07297
999.3532 2518.34621
999.5221 2501.20471
999.6910 2504.87058
999.8599 2520.04603
1000.0287 2539.70653
1000.1976 2527.56207
1000.3664 2529.75340
1000.5352 2517.13791
1000.7040 2511.56744
1000.8728 2487.52428
1001.0415 2476.50621
1001.2103 2455.53501
1001.3790 2455.24830
1001.5478 2438.08632
1001.7165 2441.81362
1001.8851 2442.59185
1002.0538 2450.55845
1002.2225 2457.17339
1002.3911 2453.46656
1002.5598 2427.45736
1002.7284 2412.58911
1002.8970 2421.08818
1003.0656 2420.26899
1003.2341 2403.76236
1003.4027 2405.48265
1003.5712 2357.64210
1003.7398 2374.80408
1003.9083 2369.84800
1004.0768 2361.84044
1004.2453 2350.22846
1004.4137 2367.57475
1004.5822 2370.70815
1004.7506 2367.73859
1004.9190 2341.89323
1005.0874 2341.07404
1005.2558 2345.04710
1005.4242 2338.94415
1005.5926 2350.47421
1005.7609 2341.42219
1005.9292 2311.64473
1006.0976 2337.79729
1006.2659 2330.09692
1006.4342 2348.42625
1006.6024 2337.24434
1006.7707 2340.54157
1006.9389 2336.65042
1007.1071 2334.41814
1007.2754 2319.09933
1007.4436 2321.65929
1007.6117 2301.83496
1007.7799 2308.18366
1007.9481 2293.27445
1008.1162 2306.81152
1008.2843 2292.27094
1008.4524 2294.83090
1008.6205 2284.83682
1008.7886 2291.51319
1008.9566 2270.50103
1009.1247 2280.74088
1009.2927 2265.36063
1009.4607 2261.01894
1009.6287 2251.04533
1009.7967 2251.86452
1009.9647 2250.14423
1010.1327 2245.39294
1010.3006 2230.34037
1010.4685 2230.23797
1010.6364 2230.17653
1010.8043 2221.84130
1010.9722 2201.25921
1011.1401 2201.17729
1011.3079 2199.72323
1011.4758 2213.87470
1011.6436 2199.51844
1011.8114 2208.05847
1011.9792 2202.09888
1012.1470 2221.75938
1012.3147 2221.51362
1012.4825 2216.65994
1012.6502 2225.24093
1012.8179 2220.03908
1012.9856 2199.25220
1013.1533 2211.23282
1013.3210 2184.07675
1013.4886 2175.88488
1013.6563 2170.56016
1013.8239 2166.40278
1013.9915 2182.56126
1014.1591 2161.83581
1014.3267 2156.57253
1014.4942 2168.77843
1014.6618 2153.29578
1014.8293 2162.75740
1014.9969 2151.55501
1015.1644 2159.66497
1015.3319 2161.24190
1015.4993 2150.77678
1015.6668 2139.20576
1015.8342 2143.40409
1016.0017 2136.70724
1016.1691 2156.51109
1016.3365 2124.35798
1016.5039 2136.19524
1016.6712 2134.86406
1016.8386 2122.94489
1017.0059 2120.24157
1017.1733 2128.96591
1017.3406 2110.51372
1017.5079 2123.06776
1017.6752 2093.37222
1017.8424 2104.06261
1018.0097 2090.15691
1018.1769 2108.67054
1018.3441 2088.72333
1018.5113 2101.78937
1018.6785 2083.76724
1018.8457 2095.80930
1019.0129 2091.28329
1019.1800 2090.17739
1019.3471 2097.16096
1019.5142 2090.75082
1019.6813 2092.88070
1019.8484 2088.04750
1020.0155 2079.09787
1020.1826 2083.70580
1020.3496 2059.88793
1020.5166 2055.52575
1020.6836 2045.73646
1020.8506 2050.13960
1021.0176 2039.75640
1021.1846 2050.77447
1021.3515 2049.23849
1021.5185 2046.51469
1021.6854 2034.34976
1021.8523 2041.72245
1022.0192 2049.56617
1022.1861 2046.16654
1022.3529 2026.87467
1022.5198 2039.85879
1022.6866 2024.80622
1022.8534 2043.48370
1023.0202 2027.79626
1023.1870 2020.44405
1023.3538 2015.65180
1023.5205 2020.36213
1023.6873 2013.05088
1023.8540 2021.44755
1024.0207 2006.47690
1024.1874 2015.93852
1024.3541 2003.77358
1024.5207 2014.42302
1024.6874 1998.28503
1024.8540 2013.97247
1025.0206 1993.28798
1025.1872 1990.11363
1025.3538 1993.59518
1025.5204 1999.45237
1025.6870 1991.89537
1025.8535 1978.64501
1026.0201 1967.19686
1026.1866 1980.54962
1026.3531 1973.56605
1026.5196 1977.35479
1026.6860 1981.71696
1026.8525 1986.16105
1027.0189 1959.04595
1027.1853 1968.73284
1027.3518 1946.36902
1027.5181 1965.06698
1027.6845 1958.24724
1027.8509 1951.07935
1028.0172 1934.30648
1028.1836 1940.10224
1028.3499 1931.48029
1028.5162 1947.74116
1028.6825 1921.21996
1028.8488 1928.14210
1029.0150 1920.58509
1029.1813 1931.09117
1029.3475 1910.05853
1029.5137 1922.30539
1029.6799 1923.26793
1029.8461 1913.04857
1030.0123 1910.07901
1030.1784 1907.94913
1030.3446 1915.30133
1030.5107 1914.40023
1030.6768 1912.14746
1030.8429 1905.53252
1031.0090 1889.18973
1031.1750 1906.59747
1031.3411 1895.39508
1031.5071 1893.38807
1031.6732 1890.04988
1031.8392 1897.97552
1032.0051 1883.18918
1032.1711 1886.17922
1032.3371 1884.45892
1032.5030 1885.76962
1032.6690 1886.99841
1032.8349 1886.85505
1033.0008 1876.53329
1033.1667 1877.45487
1033.3325 1865.59713
1033.4984 1881.12074
1033.6642 1866.86687
1033.8300 1886.69121
1033.9959 1873.35893
1034.1616 1874.21908
1034.3274 1878.25358
1034.4932 1870.67610
1034.6589 1846.46910
1034.8247 1867.66558
1034.9904 1853.90323
1035.1561 1868.11613
1035.3218 1849.27482
1035.4875 1850.87224
1035.6531 1844.87169
1035.8188 1857.97869
1035.9844 1841.18535
1036.1500 1851.19991
1036.3156 1834.09937
1036.4812 1841.59494
1036.6468 1827.70971
1036.8123 1837.45804
1036.9779 1826.00990
1037.1434 1845.42464
1037.3089 1828.69274
1037.4744 1838.40011
1037.6399 1827.60731
1037.8053 1826.25565
1037.9708 1820.91045
1038.1362 1829.04089
1038.3016 1823.65473
1038.4670 1830.96598
1038.6324 1831.94901
1038.7978 1797.05162
1038.9632 1817.59275
1039.1285 1816.13869
1039.2938 1803.85088
1039.4592 1807.27098
1039.6245 1793.83631
1039.7897 1811.81747
1039.9550 1806.90235
1040.1203 1810.17910
1040.2855 1795.65900
1040.4507 1801.53667
1040.6159 1792.23889
1040.7811 1791.91122
1040.9463 1790.76435
1041.1115 1784.51805
1041.2766 1783.39167
1041.4418 1776.51049
1041.6069 1768.44150
1041.7720 1767.82710
1041.9371 1764.36604
1042.1021 1772.02544
1042.2672 1762.35903
1042.4323 1779.58245
1042.5973 1761.88800
1042.7623 1764.69371
1042.9273 1765.55386
1043.0923 1761.70368
1043.2572 1750.23505
1043.4222 1750.62417
1043.5871 1739.56514
1043.7521 1765.47194
1043.9170 1759.73763
1044.0819 1758.57029
1044.2467 1766.04537
1044.4116 1749.78450
1044.5765 1749.57970
1044.7413 1744.82842
1044.9061 1739.33986
1045.0709 1745.72952
1045.2357 1728.50610
1045.4005 1734.87529
1045.5652 1730.67695
1045.7300 1725.16792
1045.8947 1715.80870
1046.0594 1730.57455
1046.2241 1714.27272
1046.3888 1723.46810
1046.5535 1721.87069
1046.7181 1730.22640
1046.8828 1716.38213
1047.0474 1708.57937
1047.2120 1713.43305
1047.3766 1714.49800
1047.5412 1699.44543
1047.7057 1698.81056
1047.8703 1697.45890
1048.0348 1702.98841
1048.1993 1700.71517
1048.3639 1699.52735
1048.5283 1690.20909
1048.6928 1691.37643
1048.8573 1681.11611
1049.0217 1693.71112
1049.1861 1676.28290
1049.3506 1689.30798
1049.5150 1683.47127
1049.6793 1682.52921
1049.8437 1680.56316
1050.0081 1683.43031
1050.1724 1675.21796
1050.3367 1681.56666
1050.5010 1665.67442
1050.6653 1670.87626
1050.8296 1667.29232
1050.9939 1678.92478
1051.1581 1660.32922
1051.3224 1671.14250
1051.4866 1655.86465
1051.6508 1669.27885
1051.8150 1648.63532
1051.9791 1654.00100
1052.1433 1641.69271
1052.3074 1651.40008
1052.4716 1641.34455
1052.6357 1641.59031
1052.7998 1646.62831
1052.9639 1651.13385
1053.1279 1634.66818
1053.2920 1633.23460
1053.4560 1632.41541
1053.6201 1649.90506
1053.7841 1636.26559
1053.9481 1623.44531
1054.1120 1622.29845
1054.2760 1630.75656
1054.4399 1623.17907
1054.6039 1629.13866
1054.7678 1612.24292
1054.9317 1620.23000
1055.0956 1622.44180
1055.2595 1614.51616
1055.4233 1604.84975
1055.5872 1611.48517
1055.7510 1600.18038
1055.9148 1610.13351
1056.0786 1604.68591
1056.2424 1620.76247
1056.4062 1598.66489
1056.5699 1607.75787
1056.7336 1601.63444
1056.8974 1601.85972
1057.0611 1595.34718
1057.2248 1602.14643
1057.3885 1592.41858
1057.5521 1594.56895
1057.7158 1584.39054
1057.8794 1597.45658
1058.0430 1585.63980
1058.2066 1584.51342
1058.3702 1568.00679
1058.5338 1595.51101
1058.6973 1581.89202
1058.8609 1580.54036
1059.0244 1571.75458
1059.1879 1579.45494
1059.3514 1568.31399
1059.5149 1575.68668
1059.6784 1572.43041
1059.8418 1573.12672
1060.0053 1566.57322
1060.1687 1564.99628
1060.3321 1555.75994
1060.4955 1565.46731
1060.6589 1558.15606
1060.8222 1555.45275
1060.9856 1556.27193
1061.1489 1557.95127
1061.3122 1546.60552
1061.4755 1555.30939
1061.6388 1550.47618
1061.8021 1555.96474
1061.9654 1545.39722
1062.1286 1557.29592
1062.2918 1543.24685
1062.4550 1543.32877
1062.6182 1529.01347
1062.7814 1549.30884
1062.9446 1539.99058
1063.1077 1537.61494
1063.2709 1529.54594
1063.4340 1535.79225
1063.5971 1525.34760
1063.7602 1521.82510
1063.9233 1520.51440
1064.0863 1528.37860
1064.2494 1512.11773
1064.4124 1525.94152
1064.5754 1513.85850
1064.7384 1518.85554
1064.9014 1506.54725
1065.0644 1517.23765
1065.2274 1506.32198
1065.3903 1513.30555
1065.5532 1502.26700
1065.7162 1504.11017
1065.8790 1500.56718
1066.0419 1516.35702
1066.2048 1497.65907
1066.3677 1497.08564
1066.5305 1495.81590
1066.6933 1501.36589
1066.8561 1481.76683
1067.0189 1490.26590
1067.1817 1481.58251
1067.3445 1478.14193
1067.5072 1486.53860
1067.6699 1477.95761
1067.8327 1484.32679
1067.9954 1480.04654
1068.1580 1471.48603
1068.3207 1473.88215
1068.4834 1467.02145
1068.6460 1478.03953
1068.8086 1468.27072
1068.9713 1469.11038
1069.1339 1462.92552
1069.2964 1465.93603
1069.4590 1457.08881
1069.6216 1468.45503
1069.7841 1464.01094
1069.9466 1457.06833
1070.1091 1443.49029
1070.2716 1460.52939
1070.4341 1451.66169
1070.5966 1452.09176
1070.7590 1451.47737
1070.9214 1457.27312
1071.0839 1448.77405
1071.2463 1455.63475
1071.4086 1436.56816
1071.5710 1440.80745
1071.7334 1432.59510
1071.8957 1435.42130
1072.0580 1427.08606
1072.2204 1441.87240
1072.3827 1427.41374
1072.5449 1427.02462
1072.7072 1420.83976
1072.8695 1429.23643
1073.0317 1414.12242
1073.1939 1423.74788
1073.3561 1421.06504
1073.5183 1428.94972
1073.6805 1410.64088
1073.8427 1417.52205
1074.0048 1403.53442
1074.1669 1418.95563
1074.3291 1402.53092
1074.4912 1410.66135
1074.6532 1397.77963
1074.8153 1404.78368
1074.9774 1398.02539
1075.1394 1404.76320
1075.3014 1402.63332
1075.4635 1398.55786
1075.6255 1393.82705
1075.7874 1401.62981
1075.9494 1381.76452
1076.1114 1392.80307
1076.2733 1387.72410
1076.4352 1390.50934
1076.5971 1382.41987
1076.7590 1385.94237
1076.9209 1369.08759
1077.0828 1389.56728
1077.2446 1365.87228
1077.4064 1377.36138
1077.5683 1371.50419
1077.7301 1373.40880
1077.8918 1363.02560
1078.0536 1371.23796
1078.2154 1368.02265
1078.3771 1362.94368
1078.5388 1364.33630
1078.7006 1366.30235
1078.8623 1357.04553
1079.0239 1361.46915
1079.1856 1361.30531
1079.3473 1364.39774
1079.5089 1349.46805
1079.6705 1354.79277
1079.8321 1358.62247
1079.9937 1355.57100
1080.1553 1345.55643
1080.3169 1351.70033
1080.4784 1342.85311
1080.6399 1349.09941
1080.8014 1341.23521
1080.9629 1343.99997
1081.1244 1334.62027
1081.2859 1341.52193
1081.4474 1322.94685
1081.6088 1341.23521
1081.7702 1326.32600
1081.9316 1330.21714
1082.0930 1332.71566
1082.2544 1329.15220
1082.4158 1326.28504
1082.5771 1320.98080
1082.7385 1321.88191
1082.8998 1324.50331
1083.0611 1315.38985
1083.2224 1315.71752
1083.3837 1315.36937
1083.5449 1308.50867
1083.7062 1303.59355
1083.8674 1308.87731
1084.0286 1302.52860
1084.1898 1311.45775
1084.3510 1292.86219
1084.5122 1310.51568
1084.6734 1303.53211
1084.8345 1304.28986
1084.9956 1295.95463
1085.1567 1301.29982
1085.3178 1297.20389
1085.4789 1302.67196
1085.6400 1282.72475
1085.8010 1288.99153
1085.9621 1286.69781
1086.1231 1289.60592
1086.2841 1265.93140
1086.4451 1288.82769
1086.6061 1280.92253
1086.7670 1285.53046
1086.9280 1285.34615
1087.0889 1282.15132
1087.2498 1287.10740
1087.4107 1279.18176
1087.5716 1278.56737
1087.7325 1275.94597
1087.8933 1265.68565
1088.0542 1296.63045
1088.2150 1267.13970
1088.3758 1274.53287
1088.5366 1261.97882
1088.6974 1265.93140
1088.8582 1270.19118
1089.0189 1276.04837
1089.1796 1271.21516
1089.3404 1265.58325
1089.5011 1257.18658
1089.6618 1281.33213
1089.8224 1261.99930
1089.9831 1270.92845
1090.1438 1264.39543
1090.3044 1276.58084
1090.4650 1264.72310
1090.6256 1269.35151
1090.7862 1257.49377
1090.9468 1263.28952
1091.1073 1261.07772
1091.2679 1255.89636
1091.4284 1263.82200
1091.5889 1268.69616
1091.7494 1260.01277
1091.9099 1262.44986
1092.0703 1258.70207
1092.2308 1261.58971
1092.3912 1262.96185
1092.5516 1271.62476
1092.7121 1256.40835
1092.8724 1268.36849
1093.0328 1256.49027
1093.1932 1259.29598
1093.3535 1248.95374
1093.5139 1266.34100
1093.6742 1261.40539
1093.8345 1259.58270
1093.9948 1250.91979
1094.1550 1257.96480
1094.3153 1249.48621
1094.4755 1259.25502
1094.6358 1260.70908
1094.7960 1255.65060
1094.9562 1248.78990
1095.1163 1260.91388
1095.2765 1244.98068
1095.4367 1257.45281
1095.5968 1242.91223
1095.7569 1263.00281
1095.9170 1250.98123
1096.0771 1262.59321
1096.2372 1249.30190
1096.3973 1261.15964
1096.5573 1255.50724
1096.7173 1262.04026
1096.8773 1253.00872
1097.0374 1258.96831
1097.1973 1245.12404
1097.3573 1258.49728
1097.5173 1252.74248
1097.6772 1252.41481
1097.8371 1245.71795
1097.9970 1249.58861
1098.1569 1249.71149
1098.3168 1256.83842
1098.4767 1241.82681
1098.6365 1263.67864
1098.7964 1247.43825
1098.9562 1262.24506
1099.1160 1245.45172
1099.2758 1259.09119
1099.4356 1244.71445
1099.5953 1262.79801
1099.7551 1246.18898
1099.9148 1256.32643
1100.0745 1253.56167
1100.2342 1253.19304
1100.3939 1252.94728
1100.5536 1265.43989
1100.7132 1249.34286
1100.8729 1256.61315
1101.0325 1252.27145
1101.1921 1261.36443
1101.3517 1246.10707
1101.5113 1253.99175
1101.6709 1254.19654
1101.8304 1253.47975
1101.9899 1247.11057
1102.1495 1258.59968
1102.3090 1249.85485
1102.4685 1252.02570
1102.6279 1248.54415
1102.7874 1248.21647
1102.9468 1244.71445
1103.1063 1254.13510
1103.2657 1249.71149
1103.4251 1256.26499
1103.5845 1245.00116
1103.7438 1251.41130
1103.9032 1246.14802
1104.0625 1253.58215
1104.2219 1244.32533
1104.3812 1249.48621
1104.5405 1245.43124
1104.6997 1265.17365
1104.8590 1253.17256
1105.0183 1252.16905
1105.1775 1241.23290
1105.3367 1257.49377
1105.4959 1246.14802
1105.6551 1253.60263
1105.8143 1246.68050
1105.9735 1261.89690
1106.1326 1244.53013
1106.2917 1256.10115
1106.4508 1254.60614
1106.6099 1254.70853
1106.7690 1247.33585
1106.9281 1248.78990
1107.0872 1252.64009
1107.2462 1256.81794
1107.4052 1249.52717
1107.5642 1247.74544
1107.7232 1250.42828
1107.8822 1257.84193
1108.0412 1246.08659
1108.2001 1257.02274
1108.3591 1245.79987
1108.5180 1249.40430
1108.6769 1246.74194
1108.8358 1255.83492
1108.9947 1245.94323
1109.1535 1250.01869
1109.3124 1247.43825
1109.4712 1254.42182
1109.6300 1255.22053
1109.7888 1255.24101
1109.9476 1242.19545
1110.1064 1256.87938
1110.2651 1242.11353
1110.4239 1251.77994
1110.5826 1248.35983
1110.7413 1249.32238
1110.9000 1239.86076
1111.0587 1250.32588
1111.2173 1246.00467
1111.3760 1256.65410
1111.5346 1253.27496
1111.6932 1256.38787
1111.8518 1245.14452
1112.0104 1259.23455
1112.1690 1250.61260
1112.3276 1254.91333
1112.4861 1239.84028
1112.6446 1257.71905
1112.8032 1251.12459
1112.9617 1257.22754
1113.1201 1253.86887
1113.2786 1257.12514
1113.4371 1244.77589
1113.5955 1254.21702
1113.7539 1237.30080
1113.9123 1254.79045
1114.0707 1245.14452
1114.2291 1254.99525
1114.3875 1244.96020
1114.5458 1258.21056
1114.7042 1239.55357
1114.8625 1248.44175
1115.0208 1246.37330
1115.1791 1254.81093
1115.3374 1244.30485
1115.4956 1249.60909
1115.6539 1243.32183
1115.8121 1259.05023
1115.9703 1247.68400
1116.1285 1257.49377
1116.2867 1240.65947
1116.4449 1248.25743
1116.6030 1243.79286
1116.7612 1253.78695
1116.9193 1248.58511
1117.0774 1252.25097
1117.2355 1243.28087
1117.3936 1251.43178
1117.5516 1255.28197
1117.7097 1250.69452
1117.8677 1253.07016
1118.0257 1258.23104
1118.1837 1250.87883
1118.3417 1255.42532
1118.4997 1250.71500
1118.6577 1248.46223
1118.8156 1244.50965
1118.9735 1257.18658
1119.1315 1251.37035
1119.2894 1260.66812
1119.4472 1251.75946
1119.6051 1252.47625
1119.7630 1244.03862
1119.9208 1252.88584
1120.0786 1241.27386
1120.2364 1259.72606
1120.3942 1251.28843
1120.5520 1251.55466
1120.7098 1251.41130
1120.8675 1256.49027
1121.0253 1257.94432
1121.1830 1251.73898
1121.3407 1251.41130
1121.4984 1250.81739
1121.6560 1253.68455
