# Averages = 100
# wavelength [µm]	intensity
446.8250 14.33578
447.0374 36746.70328
447.2498 1231.81224
447.4621 1225.77074
447.6745 1231.93512
447.8868 1239.59452
448.0992 1236.97312
448.3115 1231.89416
448.5238 1241.45818
448.7360 1234.47460
448.9483 1244.18197
449.1606 1236.31777
449.3728 1258.39488
449.5850 1234.41316
449.7972 1249.19950
450.0094 1239.65596
450.2216 1257.55521
450.4337 1247.82736
450.6459 1774.44204
450.8580 2136.95299
451.0701 2194.00940
451.2822 2206.42009
451.4943 2197.01992
451.7064 2174.75850
451.9184 2173.55019
452.1305 2268.16635
452.3425 2372.30556
452.5545 2273.77778
452.7665 2287.37630
452.9785 2388.44355
453.1905 2415.00571
453.4024 2374.96792
453.6143 2490.86247
453.8263 2483.44883
454.0382 2685.07135
454.2501 2468.68297
454.4619 2441.56786
454.6738 2586.60501
454.8856 2719.66154
455.0975 2508.96652
455.3093 2520.16890
455.5211 2576.59044
455.7329 2546.58770
455.9446 2613.88395
456.1564 2619.92546
456.3681 2720.58313
456.5798 2826.03304
456.7916 2756.99601
457.0033 2721.44327
457.2149 2702.68388
457.4266 2738.05230
457.6382 2766.47811
457.8499 2745.42499
458.0615 2879.58742
458.2731 2755.89011
458.4847 2883.31472
458.6963 2993.04489
458.9078 3025.44375
459.1194 3190.12092
459.3309 3215.18806
459.5424 3051.24816
459.7539 2935.45601
459.9654 2954.03108
460.1769 3001.13437
460.3883 2989.41998
460.5998 2867.09481
460.8112 2831.46015
461.0226 2897.56859
461.2340 2991.63179
461.4454 2948.95212
461.6567 2930.49992
461.8681 2935.49697
462.0794 2882.88465
462.2907 3025.81239
462.5020 3295.32508
462.7133 3393.60710
462.9246 3143.91875
463.1359 3004.39064
463.3471 2873.79167
463.5583 2930.74568
463.7696 3346.05326
463.9808 3194.38070
464.1919 3117.47947
464.4031 3109.16472
464.6143 3144.79937
464.8254 3048.81108
465.0365 2999.94654
465.2476 3287.09224
465.4587 3457.66756
465.6698 3017.06756
465.8809 3085.46972
466.0919 3078.34279
466.3030 3139.96617
466.5140 3165.70913
466.7250 3095.32045
466.9360 3230.60926
467.1469 3172.34455
467.3579 2948.33773
467.5688 2926.77262
467.7798 3184.67332
467.9907 3309.06695
468.2016 3191.55450
468.4125 3146.70398
468.6233 2992.41002
468.8342 3025.40280
469.0450 3204.14951
469.2559 3314.22783
469.4667 3265.28138
469.6775 2995.44101
469.8882 3178.97997
470.0990 3141.62502
470.3098 3444.76536
470.5205 3245.10888
470.7312 3337.10364
470.9419 3568.03260
471.1526 3450.92974
471.3633 3148.69051
471.5739 3181.92905
471.7846 3175.41651
471.9952 3093.19056
472.2058 3216.74452
472.4164 3183.17831
472.6270 3162.63718
472.8376 3311.62691
473.0481 3504.77084
473.2587 3584.00675
473.4692 3504.03357
473.6797 3371.77575
473.8902 3120.71526
474.1007 3094.54222
474.3111 3121.14533
474.5216 3055.26218
474.7320 3177.85359
474.9424 3349.26857
475.1528 3406.50930
475.3632 3268.55813
475.5736 3223.05226
475.7840 3228.00834
475.9943 3269.19300
476.2046 3304.33614
476.4149 3375.11394
476.6252 3391.90728
476.8355 3510.30036
477.0458 3591.17464
477.2561 3570.01913
477.4663 3414.25062
477.6765 3430.63437
477.8867 3448.34930
478.0969 3438.68289
478.3071 3436.71684
478.5173 3530.45237
478.7274 3491.82768
478.9375 3551.56693
479.1477 3529.03927
479.3578 3674.42457
479.5679 3625.41668
479.7779 3655.76758
479.9880 3641.96427
480.1980 3700.92529
480.4081 3715.93690
480.6181 3565.61599
480.8281 3705.36938
481.0381 3622.93864
481.2480 3625.25284
481.4580 3712.63967
481.6679 3666.76517
481.8778 3611.94105
482.0877 3646.06020
482.2976 3542.69922
482.5075 3628.20192
482.7174 3711.57472
482.9272 3792.28517
483.1371 3651.58972
483.3469 3696.33784
483.5567 3841.76410
483.7665 3705.14410
483.9762 3762.69203
484.1860 3911.98895
484.3957 3913.19725
484.6055 3766.56269
484.8152 3849.95597
485.0249 3960.99684
485.2346 3951.37139
485.4442 3939.88228
485.6539 3982.68483
485.8635 3964.76510
486.0732 3835.86595
486.2828 3872.23787
486.4924 3856.69379
486.7019 3988.21434
486.9115 3930.40019
487.1210 3938.96070
487.3306 4076.27700
487.5401 4064.05063
487.7496 4124.13803
487.9591 4160.96051
488.1686 4087.41795
488.3780 4037.87759
488.5875 4146.68617
488.7969 4262.00729
489.0063 4216.56286
489.2157 4285.59989
489.4251 4206.01582
489.6345 4199.74904
489.8438 4294.20135
490.0531 4116.04855
490.2625 4183.11953
490.4718 4282.11834
490.6811 4335.36553
490.8903 4371.38930
491.0996 4401.94499
491.3089 4408.19130
491.5181 4476.26578
491.7273 4475.97906
491.9365 4463.15878
492.1457 4540.94063
492.3549 4557.59062
492.5640 4464.87907
492.7732 4538.27827
492.9823 4591.91457
493.1914 4717.76225
493.4005 4701.50138
493.6096 4653.70179
493.8187 4627.52875
494.0277 4722.59546
494.2368 4726.24084
494.4458 4766.21719
494.6548 4829.06935
494.8638 4876.11120
495.0728 4850.96214
495.2817 4859.19497
495.4907 4892.53590
495.6996 4922.78440
495.9085 4951.21021
496.1174 5013.36606
496.3263 5023.11439
496.5352 5023.56495
496.7440 5129.21965
496.9529 5185.68215
497.1617 5113.30694
497.3705 5143.96503
497.5793 5261.57987
497.7881 5162.39675
497.9969 5272.70034
498.2056 5327.56543
498.4144 5353.30839
498.6231 5400.78031
498.8318 5408.00964
499.0405 5448.27270
499.2492 5418.90483
499.4578 5482.67858
499.6665 5485.25902
499.8751 5630.13233
500.0837 5613.76906
500.2923 5632.36462
500.5009 5665.39835
500.7095 5786.65858
500.9180 5724.83040
501.1266 5809.39103
501.3351 5837.83732
501.5436 5918.11770
501.7521 5885.14540
501.9606 5979.70012
502.1691 6020.20894
502.3775 5999.91357
502.5860 6071.38768
502.7944 6092.97327
503.0028 6159.26602
503.2112 6166.43391
503.4196 6226.35747
503.6279 6284.21259
503.8363 6231.10876
504.0446 6397.67006
504.2529 6359.41400
504.4612 6446.63699
504.6695 6535.08876
504.8778 6548.44152
505.0860 6563.98560
505.2943 6579.12009
505.5025 6667.36706
505.7107 6687.84675
505.9189 6754.65149
506.1271 6798.58042
506.3353 6816.39775
506.5434 6784.55183
506.7516 6924.28474
506.9597 6955.02475
507.1678 7028.99738
507.3759 6993.75184
507.5840 7063.73093
507.7920 7143.21260
508.0001 7152.63326
508.2081 7279.48444
508.4161 7254.78594
508.6241 7441.84740
508.8321 7403.36607
509.0401 7362.55005
509.2480 7528.72224
509.4560 7518.68719
509.6639 7591.59488
509.8718 7620.75795
510.0797 7767.20820
510.2876 7776.44454
510.4955 7868.11162
510.7033 7927.03168
510.9112 7959.41007
511.1190 8074.19872
511.3268 8012.84157
511.5346 8086.58893
511.7424 8131.58280
511.9501 8268.57143
512.1579 8284.75038
512.3656 8339.88170
512.5733 8309.85848
512.7810 8445.10634
512.9887 8541.31991
513.1964 8563.11030
513.4040 8627.53939
513.6117 8687.48344
513.8193 8778.43373
514.0269 8814.51894
514.2345 8922.26257
514.4421 8875.42553
514.6497 8888.49157
514.8572 9076.12647
515.0647 9119.93252
515.2723 9195.78928
515.4798 9259.17391
515.6873 9347.40041
515.8947 9416.58079
516.1022 9376.72732
516.3097 9479.06432
516.5171 9598.01034
516.7245 9674.09238
516.9319 9743.72332
517.1393 9794.75870
517.3467 9794.82014
517.5540 9809.27880
517.7614 10051.12343
517.9687 10066.99519
518.1760 10092.73815
518.3833 10257.88635
518.5906 10279.12379
518.7978 10469.72824
519.0051 10410.37811
519.2123 10614.82683
519.4196 10389.40691
519.6268 10607.80230
519.8340 10650.68676
520.0411 10742.62008
520.2483 10964.16934
520.4554 10923.06660
520.6626 11207.67282
520.8697 11151.10793
521.0768 11380.86954
521.2839 11306.58971
521.4909 11357.23598
521.6980 11559.43193
521.9050 11752.00244
522.1121 11643.23482
522.3191 11899.21043
522.5261 11882.68332
522.7331 11919.11669
522.9400 12159.99877
523.1470 12167.08474
523.3539 12286.39940
523.5608 12273.23096
523.7677 12325.18793
523.9746 12440.14042
524.1815 12736.66581
524.3884 12644.99873
524.5952 12671.86808
524.8020 12974.94697
525.0089 12867.05998
525.2157 13026.82202
525.4225 13133.97175
525.6292 13153.01786
525.8360 13220.66227
526.0427 13355.11141
526.2494 13528.90204
526.4562 13497.99819
526.6629 13638.79605
526.8695 13645.86154
527.0762 13914.55504
527.2829 14007.73762
527.4895 14076.05785
527.6961 14207.16881
527.9027 14359.61961
528.1093 14398.69485
528.3159 14470.90623
528.5224 14425.27748
528.7290 14796.75854
528.9355 14647.99409
529.1420 15077.61697
529.3485 14948.30822
529.5550 15197.30026
529.7615 15151.69200
529.9680 15331.81085
530.1744 15359.25363
530.3808 15563.00604
530.5872 15497.57344
530.7936 15657.45836
531.0000 15733.60184
531.2064 15922.21976
531.4127 16048.94807
531.6191 16166.33764
531.8254 16250.40675
532.0317 16474.59789
532.2380 16431.16048
532.4443 16562.92679
532.6505 16372.77289
532.8568 16648.34756
533.0630 17009.03582
533.2692 16916.38571
533.4754 17078.70772
533.6816 17310.35346
533.8878 17195.91297
534.0939 17573.92704
534.3001 17580.72630
534.5062 17669.66958
534.7123 17598.05211
534.9184 17731.72303
535.1245 17883.80519
535.3306 17891.83323
535.5366 18295.61075
535.7426 18316.93010
535.9487 18350.94686
536.1547 18349.28801
536.3607 18670.45047
536.5666 18559.12289
536.7726 18690.72536
536.9785 18902.81300
537.1845 19088.56377
537.3904 19008.05812
537.5963 19092.31155
537.8022 19270.54627
538.0080 19474.31916
538.2139 19537.02796
538.4197 19723.37264
538.6256 19648.78562
538.8314 19737.81082
539.0372 19886.30903
539.2430 20255.90595
539.4487 20061.88140
539.6545 20476.18547
539.8602 20343.74333
540.0659 20571.23170
540.2716 21002.96400
540.4773 21049.51433
540.6830 21173.21164
540.8887 21306.30913
541.0943 21053.20067
541.2999 21215.25644
541.5056 21220.47876
541.7112 21552.43401
541.9167 21364.30760
542.1223 21472.58371
542.3279 21880.47765
542.5334 21979.66077
542.7389 22226.19525
542.9444 22276.26809
543.1499 22400.47739
543.3554 22322.53170
543.5609 22716.66329
543.7663 22717.50295
543.9718 22591.65527
544.1772 22788.11692
544.3826 22819.94235
544.5880 23508.26465
544.7934 23296.38180
544.9987 23365.78746
545.2041 23788.81589
545.4094 23701.71578
545.6147 23769.52402
545.8200 24115.65122
546.0253 24083.90770
546.2306 24382.05099
546.4358 24153.62056
546.6411 24482.34002
546.8463 24376.09140
547.0515 24657.70759
547.2567 24843.04876
547.4619 24849.86850
547.6670 24938.75034
547.8722 25116.39115
548.0773 25433.90822
548.2824 25458.62721
548.4876 25588.16123
548.6926 25718.02293
548.8977 25833.71268
549.1028 25934.30891
549.3078 26136.21815
549.5129 26114.96023
549.7179 26296.41026
549.9229 26463.11492
550.1279 26357.84933
550.3328 26753.23017
550.5378 26423.28193
550.7427 26775.71687
550.9476 26971.78940
551.1526 26414.10703
551.3575 27023.93068
551.5623 27119.30459
551.7672 27033.76093
551.9720 27134.88963
552.1769 27372.39256
552.3817 27574.15845
552.5865 27431.39454
552.7913 27704.47070
552.9961 27556.21824
553.2008 27778.91436
553.4056 28081.76798
553.6103 28011.91177
553.8150 28240.83371
554.0197 28315.46169
554.2244 28206.61215
554.4291 28317.28439
554.6337 28672.81176
554.8384 28497.79235
555.0430 28731.93662
555.2476 28479.42207
555.4522 28559.82533
555.6568 28936.89733
555.8613 29081.21769
556.0659 29200.24563
556.2704 28924.17945
556.4750 29291.72840
556.6795 29538.67247
556.8839 29197.93143
557.0884 29726.38928
557.2929 29592.80028
557.4973 29376.49382
557.7018 29559.90990
557.9062 29775.66341
558.1106 29795.28295
558.3150 29583.95306
558.5193 29991.47836
558.7237 30103.05170
558.9280 29869.13271
559.1323 30059.42996
559.3367 29871.32403
559.5410 30218.29090
559.7452 29958.87470
559.9495 30278.43974
560.1537 30292.38641
560.3580 30230.06672
560.5622 30393.18743
560.7664 30663.92890
560.9706 30752.66738
561.1748 30868.95105
561.3789 30853.69368
561.5831 30867.94755
561.7872 30802.98598
561.9913 31124.84475
562.1954 30961.64212
562.3995 31088.45234
562.6036 31179.13640
562.8076 30951.03364
563.0117 31216.65518
563.2157 31099.44993
563.4197 31260.03116
563.6237 31555.14346
563.8277 31186.65244
564.0316 30997.35869
564.2356 31413.21923
564.4395 31430.64744
564.6434 31678.34926
564.8473 31884.96883
565.0512 31839.64728
565.2551 31809.66502
565.4590 31923.12248
565.6628 32123.55719
565.8666 32308.32493
566.0705 32069.08122
566.2743 32063.83842
566.4780 32142.29610
566.6818 31993.98220
566.8856 32614.61913
567.0893 32170.10752
567.2930 32369.62063
567.4967 32110.49115
567.7004 32298.59707
567.9041 32379.20512
568.1078 32388.42098
568.3114 32618.89939
568.5151 32586.74628
568.7187 32277.15484
568.9223 32486.23197
569.1259 32679.70358
569.3295 33016.16437
569.5330 32988.47583
569.7366 32925.95134
569.9401 33015.85717
570.1436 33121.20468
570.3471 33238.49185
570.5506 33188.89005
570.7541 33109.30598
570.9575 33083.23534
571.1609 32796.70403
571.3644 33419.02030
571.5678 33354.12017
571.7712 33785.85246
571.9746 33605.36497
572.1779 33404.21348
572.3813 33239.00385
572.5846 33510.05251
572.7879 33383.18085
572.9912 34006.23438
573.1945 33893.24794
573.3978 33476.26103
573.6010 33784.37792
573.8043 34354.69626
574.0075 33534.13662
574.2107 33657.87489
574.4139 33606.57328
574.6171 33744.60637
574.8203 33601.28952
575.0234 34063.16791
575.2266 33487.89349
575.4297 33615.50242
575.6328 33838.99725
575.8359 34223.03235
576.0390 33568.35818
576.2420 33671.18669
576.4451 33420.20812
576.6481 33730.70066
576.8512 34233.76371
577.0542 33492.27614
577.2571 33991.30469
577.4601 33996.50653
577.6631 33900.27247
577.8660 33736.61929
578.0689 33701.66047
578.2719 33828.26589
578.4748 33606.16368
578.6776 33561.31317
578.8805 33759.67942
579.0834 33227.92433
579.2862 33787.08124
579.4890 34099.35552
579.6918 33853.35351
579.8946 33561.74324
580.0974 33973.48736
580.3002 33675.03687
580.5029 33589.28842
580.7057 33955.87483
580.9084 33514.82428
581.1111 34069.61901
581.3138 33809.79322
581.5164 33557.81114
581.7191 33365.36352
581.9217 33526.86633
582.1244 33539.91189
582.3270 33579.35577
582.5296 33574.46113
582.7322 33792.52884
582.9347 33664.71511
583.1373 33458.97617
583.3398 33735.88202
583.5424 33369.19322
583.7449 33307.79512
583.9474 33153.31683
584.1498 33137.36316
584.3523 33606.16368
584.5548 33209.96365
584.7572 33448.65441
584.9596 33652.89833
585.1620 34264.83139
585.3644 33346.56316
585.5668 33371.44598
585.7691 33655.54021
585.9715 33537.63865
586.1738 33767.03163
586.3761 33731.31505
586.5784 33919.44146
586.7807 33925.44201
586.9830 33934.90363
587.1852 33847.27104
587.3875 33515.99162
587.5897 34200.93477
587.7919 33899.55569
587.9941 33558.05690
588.1963 33707.39478
588.3984 34059.70684
588.6006 33416.21458
588.8027 34143.05917
589.0048 33767.50266
589.2069 33893.45274
589.4090 33897.44628
589.6111 34114.30569
589.8131 34071.13451
590.0152 34212.42387
590.2172 34140.21249
590.4192 34420.96853
590.6212 34100.89149
590.8232 33924.21323
591.0252 34312.46715
591.2271 34464.87698
591.4291 34418.59289
591.6310 34280.12972
591.8329 34170.09236
592.0348 34571.98575
592.2367 34583.70013
592.4385 34935.68452
592.6404 35011.02929
592.8422 35154.20278
593.0440 35252.15713
593.2458 35512.84307
593.4476 35694.86653
593.6494 35695.72668
593.8512 35890.77522
594.0529 36194.93954
594.2546 36040.70701
594.4563 35970.64600
594.6580 35724.78735
594.8597 35708.64936
595.0614 35735.58015
595.2630 36092.93022
595.4647 36041.73100
595.6663 35796.20002
595.8679 36174.27554
596.0695 36612.02886
596.2711 36342.63905
596.4727 36444.70981
596.6742 36767.92024
596.8757 36978.67670
597.0773 36758.82726
597.2788 36389.12794
597.4802 36775.51820
597.6817 37274.28051
597.8832 37027.47980
598.0846 37399.57524
598.2860 37262.60709
598.4875 36960.90033
598.6889 37516.02274
598.8902 37635.25548
599.0916 37710.00634
599.2930 37310.85723
599.4943 37859.87670
599.6956 37907.79916
599.8969 37773.04282
600.0982 37330.74301
600.2995 37409.93796
600.5008 38254.17212
600.7020 37645.61820
600.9032 38235.31033
601.1045 38018.43044
601.3057 37681.99013
601.5068 38497.18409
601.7080 38486.45273
601.9092 38142.33255
602.1103 38716.11195
602.3115 38494.37837
602.5126 38655.71735
602.7137 38489.77044
602.9147 38560.20009
603.1158 38862.56220
603.3169 39137.01049
603.5179 38985.25600
603.7189 38833.15336
603.9199 39004.03588
604.1209 38960.12743
604.3219 38856.17253
604.5229 38964.59200
604.7238 39199.63737
604.9247 39194.98848
605.1257 39383.09441
605.3266 39701.84027
605.5275 39264.92662
605.7283 39449.46908
605.9292 39692.93160
606.1300 39042.18953
606.3309 39251.84010
606.5317 39745.03193
606.7325 39919.88750
606.9332 39758.05701
607.1340 39978.39797
607.3348 39930.06591
607.5355 39369.33206
607.7362 40461.78003
607.9369 39650.08810
608.1376 40019.00919
608.3383 39814.74479
608.5390 40641.87840
608.7396 40184.48506
608.9402 40866.19242
609.1409 40861.23634
609.3415 40548.02000
609.5421 40380.98767
609.7426 40760.08716
609.9432 40126.24083
610.1437 40023.92431
610.3443 41019.31905
610.5448 40653.77710
610.7453 41060.21698
610.9457 40912.39460
611.1462 41061.44576
611.3467 40887.28650
611.5471 41291.84225
611.7475 40642.16512
611.9479 41437.06371
612.1483 40955.81153
612.3487 41557.89387
612.5491 41332.59682
612.7494 42095.71094
612.9497 41338.02394
613.1501 41738.83191
613.3504 41588.53148
613.5506 42363.11422
613.7509 41885.01592
613.9512 41702.54190
614.1514 41959.74630
614.3516 42404.54463
614.5519 42150.04355
614.7521 42372.55536
614.9522 42011.31415
615.1524 41957.61641
615.3526 42514.76631
615.5527 43080.14904
615.7528 42629.45256
615.9529 42675.30658
616.1530 43152.17610
616.3531 43091.14663
616.5532 43031.50978
616.7532 42655.21600
616.9532 43041.89298
617.1533 42679.99643
617.3533 43207.63509
617.5532 42801.23617
617.7532 43042.44593
617.9532 42219.06010
618.1531 43344.19365
618.3530 42766.19543
618.5530 43034.11070
618.7528 43136.65250
618.9527 43220.02530
619.1526 42759.47809
619.3524 42909.53276
619.5523 43179.45504
619.7521 43368.27776
619.9519 43363.97703
620.1517 43412.45245
620.3515 43757.51470
620.5512 44037.57443
620.7510 43777.29808
620.9507 43423.63436
621.1504 43559.80380
621.3501 43602.03292
621.5498 43840.72367
621.7495 43943.67506
621.9492 43536.66175
622.1488 43247.07897
622.3484 43249.47510
622.5480 43245.80923
622.7476 44058.38179
622.9472 43179.51648
623.1468 43521.42487
623.3463 44727.47366
623.5459 44302.52015
623.7454 44114.96717
623.9449 43954.03778
624.1444 43909.26919
624.3439 44440.73756
624.5433 44181.93575
624.7428 43927.33227
624.9422 44078.06277
625.1416 44155.78319
625.3410 44177.53261
625.5404 44018.67168
625.7398 44032.90506
625.9391 44356.64796
626.1385 43982.19735
626.3378 44114.02510
626.5371 44705.21224
626.7364 44008.24752
626.9357 44423.71894
627.1350 44523.20926
627.3342 44184.80290
627.5335 43981.46009
627.7327 44181.32136
627.9319 44194.67411
628.1311 45216.69244
628.3303 44412.86470
628.5294 44654.15638
628.7286 44731.50816
628.9277 45113.06522
629.1268 44751.88545
629.3259 45404.32733
629.5250 45396.74985
629.7241 45407.74744
629.9231 44585.20127
630.1222 45533.28793
630.3212 45314.36007
630.5202 44878.67520
630.7192 45547.99234
630.9182 44783.69040
631.1171 45052.67062
631.3161 44829.38059
631.5150 44853.73094
631.7140 45197.42105
631.9129 45248.96842
632.1118 45716.08962
632.3106 45610.76258
632.5095 45303.62871
632.7083 45211.18340
632.9072 45352.12461
633.1060 45511.57946
633.3048 45514.01654
633.5036 44951.78768
633.7023 45210.69189
633.9011 45746.48147
634.0998 45571.89214
634.2986 45759.03552
634.4973 45448.60442
634.6960 45622.49745
634.8947 45364.80154
635.0933 45748.11985
635.2920 45289.57965
635.4906 44838.57597
635.6892 45796.00136
635.8878 45750.96653
636.0864 45663.02675
636.2850 45465.13153
636.4836 45504.18629
636.6821 45539.39087
636.8806 45632.06146
637.0792 45602.22255
637.2777 45606.78953
637.4761 45609.84100
637.6746 45316.92003
637.8731 45782.30045
638.0715 45284.23445
638.2699 46042.84303
638.4683 45740.39901
638.6667 44964.68988
638.8651 45893.66899
639.0635 46107.14925
639.2618 46116.54943
639.4602 45977.79954
639.6585 45835.44524
639.8568 46085.56366
640.0551 46160.15068
640.2534 46087.95978
640.4516 45942.22633
640.6499 46032.58271
640.8481 46769.35995
641.0463 46525.52879
641.2445 46877.61557
641.4427 46661.88255
641.6409 46389.56414
641.8390 46706.26203
642.0372 47021.30106
642.2353 46825.65861
642.4334 46245.38714
642.6315 46571.60808
642.8296 46514.96127
643.0277 46355.52690
643.2257 47030.51692
643.4237 47073.42187
643.6218 46986.23984
643.8198 46703.19007
644.0178 46740.85222
644.2157 46685.31131
644.4137 46574.00421
644.6116 47396.77565
644.8096 47643.65828
645.0075 46419.13681
645.2054 47161.11589
645.4033 47054.17096
645.6011 46897.23511
645.7990 46948.18858
645.9968 47204.57378
646.1947 47119.23493
646.3925 47201.31751
646.5903 47103.07645
646.7881 47261.32300
646.9858 47049.48111
647.1836 46895.53530
647.3813 46745.23487
647.5790 47316.02424
647.7767 47811.98084
647.9744 46976.53246
648.1721 47001.76344
648.3698 47564.40189
648.5674 46691.59857
648.7650 47114.25836
648.9627 46777.67470
649.1603 47677.10161
649.3578 47387.96939
649.5554 47478.32577
649.7530 47968.87572
649.9505 46783.12230
650.1480 47572.20465
650.3455 47826.45998
650.5430 47109.83475
650.7405 47287.00453
650.9380 47133.20207
651.1354 47478.87872
651.3329 47029.10382
651.5303 47494.75048
651.7277 47530.13938
651.9251 47622.80996
652.1225 47438.47230
652.3198 47311.84639
652.5172 47590.14486
652.7145 47891.62634
652.9118 47598.64393
653.1091 47567.43289
653.3064 48019.19431
653.5037 47698.38001
653.7009 47366.97771
653.8982 47758.28310
654.0954 48168.24548
654.2926 48308.81805
654.4898 48225.44525
654.6870 48120.65069
654.8841 48643.37423
655.0813 48152.98811
655.2784 48166.21799
655.4755 48658.61112
655.6726 48943.60645
655.8697 48185.18218
656.0668 48572.78075
656.2639 48201.83217
656.4609 48200.23475
656.6579 48321.31066
656.8550 48507.49150
657.0520 48479.78249
657.2490 47794.22495
657.4459 48487.60573
657.6429 48641.89969
657.8398 48475.07216
658.0367 48821.71135
658.2337 48778.33537
658.4305 49079.71445
658.6274 49044.16171
658.8243 48957.00016
659.0211 49289.91796
659.2180 49097.81850
659.4148 49303.68031
659.6116 49542.49395
659.8084 49458.48627
660.0052 49840.26861
660.2019 49430.77725
660.3987 49181.70330
660.5954 49276.74952
660.7921 49275.68458
660.9888 48887.06203
661.1855 49287.84952
661.3822 49466.28903
661.5788 48856.69065
661.7755 49180.74075
661.9721 48948.82877
662.1687 49335.71055
662.3653 49228.33554
662.5619 49392.07065
662.7584 48754.90661
662.9550 49086.73898
663.1515 49524.55374
663.3480 49105.35502
663.5445 49716.53033
663.7410 48984.27911
663.9375 49163.90645
664.1340 49127.98507
664.3304 49415.70420
664.5268 49096.05724
664.7233 49601.76217
664.9197 49513.71999
665.1160 49568.48267
665.3124 49452.11709
665.5088 49508.53863
665.7051 49662.87355
665.9014 49610.03596
666.0977 49256.94567
666.2940 49265.54714
666.4903 49573.60260
666.6866 49746.57404
666.8828 49300.93604
667.0791 49362.86661
667.2753 49783.02788
667.4715 49641.14460
667.6677 50200.34247
667.8639 50431.41479
668.0600 49632.76841
668.2562 49866.09349
668.4523 49735.53548
668.6484 49801.33672
668.8445 49206.83187
669.0406 50398.56537
669.2367 50259.50829
669.4327 50475.05700
669.6287 50246.56513
669.8248 50050.28780
670.0208 50325.41192
670.2168 50018.50333
670.4128 50244.70148
670.6087 50185.26942
670.8047 50140.07075
671.0006 50954.26121
671.1965 49714.93292
671.3924 50456.31809
671.5883 49928.96613
671.7842 50039.31069
671.9801 49417.44498
672.1759 49857.81970
672.3717 49548.35114
672.5675 50415.87070
672.7633 50263.39943
672.9591 50574.07629
673.1549 50974.33130
673.3506 50266.90146
673.5464 49912.39807
673.7421 50541.18591
673.9378 50329.09827
674.1335 50017.41790
674.3292 50426.68398
674.5249 49916.67832
674.7205 49126.87917
674.9161 49523.12017
675.1118 49423.85512
675.3074 49479.64179
675.5030 49532.82754
675.6985 49948.09416
675.8941 49805.10498
676.0896 49946.84490
676.2852 50093.66378
676.4807 49792.28470
676.6762 50012.74853
676.8717 50318.53075
677.0671 50107.34421
677.2626 50756.87798
677.4580 50303.29386
677.6534 50303.56010
677.8489 49975.12735
678.0442 50110.51856
678.2396 49436.51157
678.4350 49762.60963
678.6303 49880.20400
678.8257 49659.10529
679.0210 50023.78709
679.2163 49609.87212
679.4116 49854.76822
679.6069 49510.42276
679.8021 49086.51371
679.9974 49094.68510
680.1926 49566.35279
680.3878 49371.81623
680.5830 49302.94305
680.7782 49326.49469
680.9734 49180.22876
681.1685 49124.05297
681.3636 49169.31308
681.5588 49239.66081
681.7539 49029.64162
681.9490 49067.30376
682.1441 49124.13489
682.3391 48728.16014
682.5342 49397.06769
682.7292 49418.40752
682.9242 49627.25938
683.1192 49341.85445
683.3142 49982.78675
683.5092 49904.30859
683.7041 49984.11793
683.8991 49744.97662
684.0940 49582.36790
684.2889 49080.96371
684.4838 49531.04580
684.6787 49089.03271
684.8736 48325.32468
685.0684 49255.71689
685.2633 48864.14526
685.4581 48886.01757
685.6529 49342.73508
685.8477 49583.39189
686.0425 49553.38914
686.2372 49210.45678
686.4320 49111.35557
686.6267 49095.91388
686.8214 48837.62407
687.0161 48718.22749
687.2108 48895.82734
687.4055 48752.75624
687.6002 49039.16467
687.7948 49014.85528
687.9894 49325.47070
688.1841 48957.43024
688.3787 48967.79296
688.5732 48618.14325
688.7678 48800.41247
688.9624 48556.00788
689.1569 48542.20457
689.3514 48333.98759
689.5459 47972.17295
689.7404 48224.74894
689.9349 48244.67567
690.1294 48364.01081
690.3238 48398.19141
690.5182 48568.17282
690.7127 48735.92194
690.9071 48473.39282
691.1015 48050.85591
691.2958 48368.31155
691.4902 48699.69337
691.6845 49565.41072
691.8789 48726.19409
692.0732 48704.09650
692.2675 48516.93264
692.4618 48753.28871
692.6560 48561.43500
692.8503 49089.23751
693.0445 48955.01363
693.2387 48246.66220
693.4329 48756.17635
693.6271 48668.25705
693.8213 48716.89631
694.0155 48952.57655
694.2096 48704.09650
694.4038 48296.05921
694.5979 48414.94380
694.7920 48347.48370
694.9861 48153.74586
695.1801 48052.33045
695.3742 47997.60872
695.5682 48011.30963
695.7623 47896.29571
695.9563 47586.64283
696.1503 48081.96456
696.3443 47437.73503
696.5382 47986.18106
696.7322 47799.28343
696.9261 48111.47579
697.1201 47642.51142
697.3140 47953.92555
697.5079 48254.91552
697.7017 47416.04704
697.8956 47520.30913
698.0894 47269.65823
698.2833 47818.02234
698.4771 47973.38125
698.6709 48244.14320
698.8647 47448.65070
699.0585 48277.03358
699.2522 47351.69986
699.4460 47734.89529
699.6397 47725.14696
699.8334 47478.65344
700.0271 47265.95141
700.2208 47410.47656
700.4144 47833.21827
700.6081 47664.89572
700.8017 47438.51325
700.9954 48031.11349
701.1890 47840.63192
701.3826 47150.97844
701.5761 47082.06429
701.7697 47183.95074
701.9632 46962.17620
702.1568 47301.81134
702.3503 47133.42735
702.5438 46767.04574
702.7373 46227.18070
702.9308 47169.79928
703.1242 47281.22925
703.3177 46943.39633
703.5111 47396.42750
703.7045 47416.29279
703.8979 47462.06490
704.0913 47267.11875
704.2847 47431.77544
704.4780 47696.02485
704.6713 46583.36342
704.8647 46798.66638
705.0580 46572.85734
705.2513 45950.29532
705.4445 46537.69372
705.6378 46583.58870
705.8311 45782.85340
706.0243 45946.85474
706.2175 46659.81410
706.4107 46379.18094
706.6039 46381.53610
706.7971 46502.50962
706.9902 46726.94651
707.1834 46633.37482
707.3765 46043.23215
707.5696 46106.73966
707.7627 46313.13395
707.9558 46329.00570
708.1489 45629.00999
708.3419 45122.21964
708.5349 45431.56532
708.7280 45358.47331
708.9210 46066.23083
709.1140 45789.85745
709.3069 45407.27641
709.4999 45186.89449
709.6929 45512.03001
709.8858 45248.16972
710.0787 45492.55383
710.2716 44822.08982
710.4645 45312.94697
710.6574 45331.29677
710.8502 45618.42199
711.0431 45201.49651
711.2359 44916.07110
711.4287 44903.33274
711.6215 45136.84214
711.8143 44989.81846
712.0071 44858.07263
712.1998 44834.17283
712.3925 45094.42870
712.5853 45230.53671
712.7780 45240.32600
712.9707 44961.53601
713.1633 45145.09545
713.3560 45096.80435
713.5487 44875.97188
713.7413 44947.03639
713.9339 44969.19541
714.1265 44689.83200
714.3191 44748.24007
714.5117 44193.73205
714.7042 44678.17905
714.8968 44830.34313
715.0893 45435.84557
715.2818 45287.77743
715.4743 45327.13939
715.6668 44935.60873
715.8592 45366.89047
716.0517 45005.03487
716.2441 45027.93116
716.4366 44754.65021
716.6290 44951.25521
716.8214 44796.22397
717.0137 44872.12170
717.2061 44781.72435
717.3984 44649.09790
717.5908 44321.11570
717.7831 44154.51345
717.9754 44809.00330
718.1677 43767.48831
718.3600 44468.13938
718.5522 44140.19814
718.7445 44120.72196
718.9367 43693.24944
719.1289 43897.59577
719.3211 43535.84257
719.5133 43702.32195
719.7054 43570.14604
719.8976 43944.35089
720.0897 43778.46542
720.2818 43730.60439
720.4740 43784.99844
720.6660 43955.49184
720.8581 43860.28178
721.0502 43604.32664
721.2422 43325.92577
721.4343 43461.93137
721.6263 43680.24484
721.8183 43536.47744
722.0103 44023.23865
722.2022 43761.11913
722.3942 43966.67375
722.5861 43637.21702
722.7781 44112.57105
722.9700 43600.12830
723.1619 43267.45626
723.3538 43149.63662
723.5456 43321.39976
723.7375 43194.87625
723.9293 43531.11176
724.1211 43171.81612
724.3129 43103.78260
724.5047 42617.12378
724.6965 42590.86883
724.8883 42836.89131
725.0800 42666.80751
725.2718 43044.04335
725.4635 42790.50482
725.6552 42737.99490
725.8469 42795.21515
726.0385 43164.95542
726.2302 42871.33815
726.4218 42139.74227
726.6135 42167.71752
726.8051 41944.89852
726.9967 42411.48724
727.1882 42654.37634
727.3798 42981.39599
727.5714 42652.84036
727.7629 43123.07446
727.9544 43088.64811
728.1459 42447.92061
728.3374 42226.06415
728.5289 42962.18604
728.7204 42434.93648
728.9118 42916.41394
729.1032 43270.69205
729.2946 43007.11847
729.4860 42242.55030
729.6774 42570.63489
729.8688 42543.00780
730.0602 42233.04772
730.2515 42582.12400
730.4428 42830.35829
730.6341 42444.91009
730.8254 42282.21945
731.0167 42758.24931
731.2080 42705.47316
731.3992 42519.64047
731.5905 42396.61899
731.7817 42462.99366
731.9729 41882.66075
732.1641 42243.30805
732.3553 41674.36185
732.5464 42090.03807
732.7376 41981.14757
732.9287 42070.62332
733.1198 41925.91385
733.3109 42049.52925
733.5020 41797.01470
733.6931 42360.22658
733.8841 42253.36358
734.0752 42563.87660
734.2662 42099.66352
734.4572 41884.64728
734.6482 41353.44515
734.8392 41343.36914
735.0302 41282.11440
735.2211 41065.48026
735.4120 41099.53798
735.6030 41598.34125
735.7939 41515.21420
735.9848 41535.12045
736.1756 41107.32026
736.3665 41306.09611
736.5574 40896.56380
736.7482 40874.11806
736.9390 40661.10883
737.1298 40990.62700
737.3206 41134.37393
737.5114 41424.34583
737.7021 40862.79279
737.8929 40789.22976
738.0836 40913.80770
738.2743 41207.69121
738.4650 41169.23036
738.6557 40804.71240
738.8463 40469.80807
739.0370 40378.30483
739.2276 40203.71549
739.4182 40324.70948
739.6088 40707.43388
739.7994 40437.42968
739.9900 40571.05965
740.1806 40487.46156
740.3711 40615.56201
740.5617 40914.70880
740.7522 40645.38043
740.9427 40612.01902
741.1332 40588.59026
741.3236 40064.08498
741.5141 40338.02128
741.7045 40713.86451
741.8949 40725.49697
742.0854 40469.52135
742.2758 40496.71838
742.4661 40007.13097
742.6565 39829.16249
742.8469 40013.58207
743.0372 40237.52745
743.2275 39804.97598
743.4178 40183.39964
743.6081 40215.26603
743.7984 40060.35768
743.9886 40082.51670
744.1789 39790.33300
744.3691 39610.88998
744.5593 39603.00530
744.7495 39357.43336
744.9397 39556.72120
745.1299 39194.84512
745.3200 38693.09278
745.5102 39045.42533
745.7003 39115.40442
745.8904 39227.71502
746.0805 39265.68436
746.2706 39157.36730
746.4607 39165.25198
746.6507 39181.08277
746.8408 38798.46077
747.0308 39212.49862
747.2208 38823.95798
747.4108 38946.48795
747.6007 39182.84403
747.7907 39684.63733
747.9806 39313.03340
748.1706 39377.05290
748.3605 39051.50779
748.5504 39043.62311
748.7403 39533.33340
748.9302 38938.19368
749.1200 38965.98462
749.3098 38891.41808
749.4997 38654.14042
749.6895 38760.61431
749.8793 38550.18552
750.0691 39014.86963
750.2588 38724.13999
750.4486 38512.97393
750.6383 38730.95972
750.8280 38084.64127
751.0177 37922.44214
751.2074 38040.07747
751.3971 38203.85353
751.5868 38203.62825
751.7764 38007.22805
751.9660 37738.63695
752.1557 37933.41925
752.3453 38050.89074
752.5348 38270.65827
752.7244 38593.02903
752.9140 38552.47925
753.1035 38280.05844
753.2930 38403.91959
753.4825 38098.91561
753.6720 38354.99362
753.8615 38338.17980
754.0510 37960.78012
754.2404 37842.26416
754.4299 37928.85228
754.6193 37873.59809
754.8087 37660.22022
754.9981 37731.83769
755.1875 37432.54754
755.3768 37248.00507
755.5662 37461.85397
755.7555 37338.38193
755.9448 37468.12075
756.1341 37373.11548
756.3234 36909.90591
756.5127 36971.01730
756.7019 37310.09948
756.8912 37404.34701
757.0804 37132.72491
757.2696 37231.49844
757.4588 36957.97174
757.6480 36724.74906
757.8371 36370.51190
758.0263 36493.63578
758.2154 36753.23630
758.4045 36455.70740
758.5936 36201.12441
758.7827 36560.19477
758.9718 36882.93416
759.1609 36440.14284
759.3499 36434.40853
759.5389 35801.34043
759.7280 36266.37269
759.9170 36344.68702
760.1059 36323.55198
760.2949 36233.42087
760.4839 36658.27199
760.6728 36412.92533
760.8617 36269.58800
761.0506 35921.16708
761.2395 35660.84977
761.4284 36024.40518
761.6173 35865.66712
761.8061 35864.62266
761.9950 35861.77598
762.1838 35582.45353
762.3726 36073.88411
762.5614 35620.64814
762.7502 35996.12273
762.9389 35291.86724
763.1277 35384.02583
763.3164 35862.73853
763.5051 35650.97856
763.6938 35913.54863
763.8825 35568.75262
764.0712 36272.49612
764.2598 35892.06544
764.4484 36059.15921
764.6371 36056.37398
764.8257 35800.41884
765.0143 35974.51666
765.2029 35567.36000
765.3914 35720.58902
765.5800 35982.11463
765.7685 35366.98673
765.9570 35449.88851
766.1455 35059.58663
766.3340 34660.00744
766.5225 34898.22717
766.7110 34751.87932
766.8994 34479.06940
767.0878 34331.47230
767.2762 34609.52501
767.4646 34463.95539
767.6530 34653.18771
767.8414 34818.76598
768.0298 34498.09503
768.2181 34364.03500
768.4064 34372.22687
768.5947 34334.25753
768.7830 34242.07846
768.9713 34206.19805
769.1596 33927.89957
769.3478 33805.30816
769.5360 34010.47367
769.7243 33801.88806
769.9125 33593.87587
770.1007 33384.20483
770.2888 33432.14778
770.4770 33598.91387
770.6651 33645.93524
770.8533 33285.90233
771.0414 33122.12627
771.2295 33437.53394
771.4176 33636.10499
771.6056 33745.63035
771.7937 33455.04407
771.9817 33188.39854
772.1698 33690.84719
772.3578 33676.92100
772.5458 33298.59974
772.7337 32782.53209
772.9217 33054.93241
773.1096 32857.97926
773.2976 33136.19581
773.4855 33399.64651
773.6734 32677.59417
773.8613 32761.45849
774.0492 32927.58972
774.2370 32717.69340
774.4249 32776.79778
774.6127 33098.16503
774.8005 32896.52203
774.9883 32825.31416
775.1761 33085.20139
775.3639 32550.10812
775.5516 32749.84651
775.7394 32421.74144
775.9271 32471.54804
776.1148 32385.36951
776.3025 31682.40424
776.4902 31936.86435
776.6778 31868.78987
776.8655 32303.38932
777.0531 32413.38572
777.2407 32340.00700
777.4283 32068.13915
777.6159 32237.97720
777.8035 31926.82931
777.9911 31673.27030
778.1786 32034.55246
778.3661 31520.10271
778.5536 31842.18676
778.7411 31963.77466
778.9286 32244.83790
779.1161 31951.36397
779.3036 31443.87732
779.4910 31512.07468
779.6784 31599.97350
779.8658 31815.11261
780.0532 31211.76054
780.2406 31575.31595
780.4280 31271.06971
780.6153 31510.23150
780.8026 31435.41921
780.9900 31611.38068
781.1773 31023.77749
781.3646 31478.03744
781.5518 31310.86175
781.7391 31120.83073
781.9263 31312.19293
782.1136 31118.51652
782.3008 30780.60168
782.4880 30957.73050
782.6752 30790.20665
782.8623 30673.37003
783.0495 31007.22990
783.2366 30355.40241
783.4237 30507.81224
783.6108 30855.72117
783.7979 30692.53902
783.9850 30684.18331
784.1721 30926.92905
784.3591 30378.36014
784.5462 30345.10112
784.7332 30437.91507
784.9202 30662.61820
785.1072 30119.43545
785.2941 30099.50871
785.4811 29874.12975
785.6681 30061.92848
785.8550 30111.42789
786.0419 29829.21780
786.2288 29700.19576
786.4157 29610.33090
786.6025 29728.96973
786.7894 29855.98475
786.9762 29723.41973
787.1631 29140.34255
787.3499 29451.06037
787.5367 29598.08404
787.7234 29189.45284
787.9102 29593.20988
788.0970 29664.92974
788.2837 29731.61160
788.4704 29172.88477
788.6571 28847.33966
788.8438 28783.07440
789.0305 28767.40744
789.2171 28729.35618
789.4038 28600.55942
789.5904 28863.31381
789.7770 28845.27121
789.9636 28876.68705
790.1502 28963.70524
790.3368 28829.68617
790.5233 28965.81465
790.7099 28627.77693
790.8964 28146.50427
791.0829 28023.23703
791.2694 27894.33788
791.4559 28029.56526
791.6423 27968.86346
791.8288 28099.62627
792.0152 28446.55217
792.2016 28410.03689
792.3880 28716.10582
792.5744 28099.01188
792.7608 27624.08792
792.9471 27741.88709
793.1335 28308.21188
793.3198 27957.29244
793.5061 28004.49812
793.6924 27549.62378
793.8787 27398.15601
794.0650 27365.61379
794.2512 27653.66059
794.4375 27787.92542
794.6237 27976.74814
794.8099 27919.83509
794.9961 27394.42871
795.1823 27432.66428
795.3684 27555.84960
795.5546 27102.71604
795.7407 27060.26165
795.9268 26913.42229
796.1129 27258.05447
796.2990 27331.92470
796.4851 27704.02014
796.6712 27411.81596
796.8572 27301.06181
797.0432 26976.92980
797.2292 27244.08732
797.4152 27142.71287
797.6012 26661.78837
797.7872 26445.13375
797.9731 26551.62813
798.1591 26277.71231
798.3450 26192.94688
798.5309 26516.15731
798.7168 26411.95666
798.9027 26344.37369
799.0885 26618.88342
799.2744 26442.53283
799.4602 26649.17288
799.6460 26537.59954
799.8318 27117.62525
800.0176 26621.77106
800.2034 26735.41284
800.3892 26158.33621
800.5749 26081.27115
800.7606 26026.91805
800.9463 26291.08554
801.1320 26135.97239
801.3177 26176.74745
801.5034 26101.91467
801.6890 26609.17605
801.8747 26120.81742
802.0603 25856.52705
802.2459 25803.64850
802.4315 25909.89712
802.6171 25432.31081
802.8026 25856.79329
802.9882 25804.18097
803.1737 25493.15596
803.3592 25670.83773
803.5447 25590.84407
803.7302 25896.19621
803.9157 25782.69778
804.1012 25872.48073
804.2866 25330.50628
804.4720 25460.30654
804.6574 25404.66323
804.8428 25201.32041
805.0282 25118.91015
805.2136 24857.20022
805.3989 25142.80995
805.5843 24983.88757
805.7696 24943.23539
805.9549 24809.29823
806.1402 24667.12824
806.3255 24493.78817
806.5107 24624.73529
806.6960 24908.66568
806.8812 24465.28044
807.0664 24587.87185
807.2516 24312.64533
807.4368 24176.74213
807.6220 24004.48748
807.8072 24156.91779
807.9923 24294.52081
808.1774 24130.27372
808.3625 24428.60132
808.5476 24455.53211
808.7327 24623.09692
808.9178 24158.72000
809.1028 24191.46702
809.2879 24056.89500
809.4729 24015.87418
809.6579 23794.79595
809.8429 23972.92828
810.0279 23913.55766
810.2128 23704.50101
810.3978 23770.99856
810.5827 23911.83737
810.7676 24062.48595
810.9525 24178.03235
811.1374 23846.42525
811.3223 23890.62041
811.5072 23566.28360
811.6920 23590.83875
811.8768 23672.28646
812.0616 23593.74686
812.2464 23645.53999
812.4312 23400.00902
812.6160 23545.37384
812.8007 23767.51701
812.9855 23814.12878
813.1702 23566.54984
813.3549 23566.71367
813.5396 23180.30293
813.7243 23257.92095
813.9089 23238.26045
814.0936 23259.25213
814.2782 23291.50763
814.4628 23163.22287
814.6474 23179.62710
814.8320 23129.45187
815.0166 22916.07400
815.2012 23031.33368
815.3857 22776.73021
815.5702 22731.20386
815.7547 22775.23519
815.9392 22831.63625
816.1237 22593.35509
816.3082 22430.80781
816.4926 22676.25686
816.6771 22787.13389
816.8615 22400.76411
817.0459 22593.53940
817.2303 22466.77014
817.4147 22580.88296
817.5990 22599.17132
817.7834 22286.58985
817.9677 22393.59622
818.1520 22641.85099
818.3363 22481.12640
818.5206 22265.82345
818.7049 22098.23816
818.8891 22140.79495
819.0734 22234.22329
819.2576 22396.62721
819.4418 22003.25337
819.6260 21964.71060
819.8102 22067.64151
819.9944 22026.76405
820.1785 21800.17679
820.3627 21953.52869
820.5468 21964.15765
820.7309 21709.45178
820.9150 21486.59182
821.0991 21267.72540
821.2831 21573.67145
821.4672 21447.29130
821.6512 21355.76757
821.8352 21379.81073
822.0192 21697.32780
822.2032 21405.53321
822.3872 21521.91928
822.5711 21246.36508
822.7551 21152.58859
822.9390 21236.96490
823.1229 21319.88716
823.3068 21278.94826
823.4907 21092.33735
823.6745 21078.61596
823.8584 20964.27787
824.0422 21055.76063
824.2261 21136.12292
824.4099 21128.68880
824.5937 21196.23081
824.7774 21171.49134
824.9612 21133.25577
825.1449 20784.40477
825.3287 20836.66893
825.5124 20760.89409
825.6961 21009.39462
825.8798 20881.64233
826.0634 20936.26165
826.2471 20798.43336
826.4307 21118.38751
826.6144 20984.59372
826.7980 21078.37020
826.9816 20869.96890
827.1652 21010.25476
827.3487 20983.11918
827.5323 20588.76232
827.7158 20489.39487
827.8993 20772.48559
828.0828 20533.83579
828.2663 20294.32585
828.4498 20460.60043
828.6333 20641.76375
828.8167 20342.88319
829.0001 20427.19806
829.1836 20545.16106
829.3670 20486.40484
829.5504 20754.77066
829.7337 20598.77688
829.9171 20558.90293
830.1004 20560.58227
830.2837 20470.51260
830.4671 20224.51059
830.6504 20075.25463
830.8336 20156.98906
831.0169 19986.51615
831.2002 20454.82516
831.3834 20332.06991
831.5666 19993.31540
831.7498 20039.43566
831.9330 20369.89590
832.1162 20269.34063
832.2993 20136.71417
832.4825 20201.71670
832.6656 20028.58142
832.8487 19599.83917
833.0318 19788.53901
833.2149 19658.12436
833.3980 19628.51073
833.5811 19819.79101
833.7641 19738.01562
833.9471 19588.94397
834.1301 19316.46173
834.3131 19118.95562
834.4961 19403.13177
834.6791 19500.14405
834.8620 19907.95606
835.0450 19723.74127
835.2279 19826.16019
835.4108 19762.50932
835.5937 19813.91334
835.7766 19495.88427
835.9594 19446.97878
836.1423 19570.24602
836.3251 19942.68961
836.5079 19876.23303
836.6907 19300.07798
836.8735 19215.27159
837.0563 19203.31146
837.2390 19314.82335
837.4218 19205.70758
837.6045 19523.32705
837.7872 19566.39584
837.9699 19378.61758
838.1526 19185.37125
838.3352 19108.26523
838.5179 19022.23006
838.7005 19181.88970
838.8831 19309.72391
839.0658 19346.11632
839.2483 19296.49403
839.4309 19367.49711
839.6135 19356.33568
839.7960 18872.62594
839.9786 18935.08899
840.1611 18820.11602
840.3436 19036.34056
840.5261 18811.18688
840.7085 18743.68583
840.8910 18624.39165
841.0734 18637.66249
841.2559 18595.29001
841.4383 18831.72801
841.6207 18978.21921
841.8030 18823.20846
841.9854 18812.98909
842.1678 18638.91175
842.3501 18716.55024
842.5324 18553.83913
842.7147 18728.57182
842.8970 18833.75550
843.0793 18728.28510
843.2615 18708.82940
843.4438 18732.07385
843.6260 18716.65264
843.8082 18671.74069
843.9904 18716.50928
844.1726 18445.89069
844.3548 18379.29075
844.5369 18292.39544
844.7191 18312.38361
844.9012 18232.69715
845.0833 18310.97051
845.2654 18571.18542
845.4475 18661.19365
845.6296 18300.99690
845.8116 18205.56156
845.9936 18205.60252
846.1757 18260.91816
846.3577 18250.51447
846.5397 18329.38175
846.7216 18170.31602
846.9036 18103.18360
847.0855 17901.99115
847.2675 18086.88177
847.4494 17989.60326
847.6313 18223.89088
847.8132 18250.82167
847.9950 18126.98100
848.1769 18084.48565
848.3587 18314.12438
848.5406 18022.47315
848.7224 17980.08020
848.9042 17866.99137
849.0860 18021.14197
849.2677 17816.81613
849.4495 17686.17621
849.6312 17566.43147
849.8129 17650.05004
849.9946 17836.55855
850.1763 17723.69499
850.3580 17582.63091
850.5397 17528.81029
850.7213 17227.86128
850.9029 17256.90148
851.0845 17353.25841
851.2661 17349.32631
851.4477 17332.18481
851.6293 17424.89635
851.8109 17408.18493
851.9924 17590.67942
852.1739 17661.92826
852.3554 17556.58074
852.5369 17389.99897
852.7184 17179.81593
852.8999 17082.47598
853.0813 17056.65109
853.2628 17141.29364
853.4442 17189.72810
853.6256 17176.04767
853.8070 17335.54348
853.9883 17350.67797
854.1697 17216.98657
854.3510 17004.38693
854.5324 16984.82883
854.7137 17049.70848
854.8950 16953.31059
855.0763 17035.33174
855.2575 17025.37861
855.4388 17038.85424
855.6200 17041.14797
855.8013 17015.85555
855.9825 16969.34618
856.1637 16974.85522
856.3449 16854.33226
856.5260 16906.78074
856.7072 16908.05048
856.8883 17117.84440
857.0694 16973.48308
857.2505 16939.95783
857.4316 16968.58844
857.6127 16870.47025
857.7938 16989.84635
857.9748 16916.75435
858.1558 16723.44658
858.3368 16645.66472
858.5178 16614.39224
858.6988 16800.75740
858.8798 16700.12021
859.0607 16845.85367
859.2417 16716.74972
859.4226 16635.44536
859.6035 16668.62245
859.7844 16760.69913
859.9653 16673.33278
860.1462 16536.13935
860.3270 16455.26507
860.5078 16393.23210
860.6887 16441.50272
860.8695 16328.70060
861.0503 16438.67652
861.2310 16189.02913
861.4118 16136.00722
861.5925 16040.30564
861.7733 16000.06305
861.9540 15851.09381
862.1347 15655.22608
862.3154 15608.75767
862.4960 15714.18710
862.6767 15772.86140
862.8573 15722.78857
863.0380 15690.94265
863.2186 15743.86216
863.3992 15680.76425
863.5797 15697.59855
863.7603 15721.53930
863.9409 15595.60971
864.1214 15661.71814
864.3019 15777.63317
864.4824 15792.93150
864.6629 15624.30175
864.8434 15422.08531
865.0238 15660.93991
865.2043 15702.53415
865.3847 15290.54428
865.5651 15194.49455
865.7455 15469.70059
865.9259 15482.13176
866.1063 15326.87525
866.2866 15281.90185
866.4670 15353.15069
866.6473 15236.33455
866.8276 15184.00895
867.0079 15121.81214
867.1882 15065.94355
867.3684 14973.15008
867.5487 14942.57391
867.7289 14947.26376
867.9091 14968.56263
868.0893 14793.72754
868.2695 14540.33237
868.4497 14442.91050
868.6299 14614.10020
868.8100 14632.73672
868.9901 14575.33215
869.1703 14649.12047
869.3504 14661.69500
869.5304 14629.21421
869.7105 14701.22079
869.8906 14640.23228
870.0706 14573.12035
870.2506 14719.87779
870.4306 14688.91250
870.6106 14616.84448
870.7906 14742.22113
870.9706 14560.81206
871.1505 14413.60406
871.3305 14446.80164
871.5104 14261.64478
871.6903 14203.27767
871.8702 14355.42127
872.0500 14285.60602
872.2299 14293.90029
872.4097 14171.04264
872.5896 14252.24460
872.7694 14317.82056
872.9492 14146.61038
873.1290 13829.97393
873.3087 13874.64013
873.4885 14170.51017
873.6682 14104.38126
873.8480 13965.61090
874.0277 14047.26341
874.2074 13803.98520
874.3870 13926.22846
874.5667 14008.29057
874.7463 14115.25598
874.9260 13947.58877
875.1056 13905.40062
875.2852 13812.32044
875.4648 13784.14039
875.6444 13743.83636
875.8239 13896.81963
876.0035 13721.71830
876.1830 13685.96077
876.3625 13596.19830
876.5420 13604.28777
876.7215 13572.68761
876.9010 13332.33800
877.0804 13463.20320
877.2599 13409.52594
877.4393 13624.11211
877.6187 13635.70361
877.7981 13637.32151
877.9775 13431.60305
878.1568 13682.35634
878.3362 13485.28031
878.5155 13430.37427
878.6948 13150.96989
878.8741 13211.05729
879.0534 13161.45549
879.2327 13093.81108
879.4119 13072.14357
879.5912 12934.23336
879.7704 13099.48395
879.9496 13209.76707
880.1288 13059.32329
880.3080 12816.57755
880.4872 12978.22372
880.6663 12966.50934
880.8455 13027.47737
881.0246 13091.43544
881.2037 13052.60595
881.3828 12945.96822
881.5619 12826.96075
881.7409 12822.66002
881.9200 12668.63229
882.0990 12836.07421
882.2780 12765.39881
882.4570 12683.41862
882.6360 12712.97081
882.8150 12509.11600
882.9940 12427.83212
883.1729 12419.43545
883.3518 12682.18984
883.5308 12617.26923
883.7096 12655.64817
883.8885 12498.03649
884.0674 12459.47324
884.2463 12455.45922
884.4251 12464.59316
884.6039 12274.37783
884.7827 12358.79510
884.9615 12283.22505
885.1403 12275.58613
885.3191 12315.29624
885.4978 12044.98485
885.6765 12152.99472
885.8553 12261.18891
886.0340 12188.17882
886.2127 12189.05945
886.3913 12074.31176
886.5700 11997.53341
886.7486 11938.63383
886.9273 11952.33474
887.1059 11824.02950
887.2845 11826.83521
887.4630 11876.98997
887.6416 11956.30780
887.8202 11997.22621
887.9987 11954.71038
888.1772 11966.13805
888.3557 11940.72276
888.5342 11816.61585
888.7127 11937.67128
888.8912 11931.30210
889.0696 11892.02206
889.2481 11693.81964
889.4265 11621.73114
889.6049 11588.26733
889.7833 11600.63707
889.9616 11527.07403
890.1400 11536.61756
890.3183 11201.26268
890.4967 11340.60647
890.6750 11552.77604
890.8533 11479.06964
891.0316 11406.81730
891.2098 11316.52236
891.3881 11236.05767
891.5663 11209.51599
891.7445 11202.53242
891.9227 11133.98691
892.1009 11133.08580
892.2791 11262.55838
892.4573 11298.11112
892.6354 11145.63985
892.8136 11153.17637
892.9917 11157.64095
893.1698 10996.99828
893.3479 11190.46988
893.5259 11375.27858
893.7040 11217.52355
893.8820 11078.71223
894.0601 11064.35597
894.2381 11139.76218
894.4161 11186.21011
894.5941 11210.39662
894.7720 11175.00772
894.9500 11139.27067
895.1279 11224.50713
895.3058 11096.61148
895.4838 11091.04100
895.6616 10988.41729
895.8395 10970.33372
896.0174 10906.76477
896.1952 10917.08654
896.3731 10971.91066
896.5509 10892.92050
896.7287 10879.95686
896.9065 10868.73399
897.0842 10880.96037
897.2620 10799.84032
897.4397 10714.93154
897.6175 10779.29920
897.7952 10799.77889
897.9729 10949.23965
898.1506 10904.94208
898.3282 10779.85215
898.5059 10756.75106
898.6835 10742.59960
898.8611 10859.86629
899.0388 10680.09559
899.2163 10532.92856
899.3939 10519.00237
899.5715 10606.32776
899.7490 10523.01639
899.9266 10523.85606
900.1041 10625.21003
900.2816 10633.89342
900.4591 10535.95955
900.6365 10535.91859
900.8140 10446.81147
900.9914 10483.16292
901.1689 10494.85682
901.3463 10419.63493
901.5237 10437.59561
901.7011 10377.03718
901.8784 10325.79700
902.0558 10245.80334
902.2331 10353.91561
902.4104 10438.12808
902.5878 10444.10815
902.7650 10360.53055
902.9423 10293.48005
903.1196 10386.86743
903.2968 10490.98616
903.4741 10455.90445
903.6513 10328.70511
903.8285 10232.90114
904.0057 10280.00442
904.1828 10124.48167
904.3600 10035.92750
904.5371 10045.77823
904.7143 10078.03374
904.8914 10133.90233
905.0685 10226.71627
905.2456 10218.60631
905.4226 10213.05632
905.5997 10261.53174
905.7767 10325.89940
905.9537 10120.79533
906.1307 10052.61845
906.3077 9969.40948
906.4847 9921.50749
906.6617 9932.44364
906.8386 10015.65261
907.0156 9916.30565
907.1925 9827.48524
907.3694 9852.42950
907.5463 9912.23019
907.7231 9937.76836
907.9000 9959.53827
908.0768 9849.93098
908.2537 9662.21416
908.4305 9726.95046
908.6073 9936.47814
908.7841 9881.53114
908.9608 9729.67425
909.1376 9703.39882
909.3143 9682.01802
909.4910 9626.29279
909.6677 9620.04649
909.8444 9643.98724
910.0211 9679.39662
910.1978 9626.55903
910.3744 9669.62781
910.5510 9716.64917
910.7277 9733.91355
910.9043 9588.15961
911.0808 9631.37175
911.2574 9608.41403
911.4340 9536.22313
911.6105 9401.32342
911.7870 9458.09312
911.9636 9502.10397
912.1401 9469.15215
912.3165 9536.46888
912.4930 9452.33833
912.6695 9358.72568
912.8459 9352.78657
913.0223 9374.84319
913.1987 9387.13100
913.3751 9353.46240
913.5515 9262.43018
913.7279 9307.97701
913.9042 9263.72040
914.0805 9179.58985
914.2568 9147.45722
914.4331 9144.34431
914.6094 9148.07161
914.7857 9120.05540
914.9620 9133.73583
915.1382 9052.04235
915.3144 8960.84631
915.4906 9074.34473
915.6668 9142.74689
915.8430 9029.55566
916.0192 8818.77871
916.1953 8962.48468
916.3715 9060.58238
916.5476 8975.63264
916.7237 9004.32468
916.8998 8989.29259
917.0759 8941.65684
917.2519 8876.53143
917.4280 8952.83875
917.6040 8900.77938
917.7800 8869.85505
917.9560 8820.78572
918.1320 8810.03389
918.3080 8815.48148
918.4839 8708.61847
918.6599 8637.08293
918.8358 8692.60336
919.0117 8712.98065
919.1876 8662.98973
919.3635 8646.52406
919.5394 8713.28784
919.7152 8651.09103
919.8911 8604.27447
920.0669 8628.29714
920.2427 8508.98248
920.4185 8422.70156
920.5942 8414.38680
920.7700 8367.52928
920.9458 8460.48658
921.1215 8489.11718
921.2972 8473.85982
921.4729 8475.27292
921.6486 8318.43947
921.8243 8168.91727
921.9999 8211.16687
922.1756 8221.52959
922.3512 8241.55872
922.5268 8189.49936
922.7024 8293.47473
922.8780 8337.93613
923.0535 8331.91510
923.2291 8263.69726
923.4046 8319.56585
923.5801 8460.73234
923.7557 8336.09296
923.9311 8257.32808
924.1066 8221.98014
924.2821 8337.75181
924.4575 8323.80515
924.6330 8271.78674
924.8084 8150.05548
924.9838 8054.02622
925.1592 8028.56997
925.3345 8043.45870
925.5099 8043.58158
925.6852 8037.04856
925.8606 8008.97091
926.0359 7906.67487
926.2112 7904.38115
926.3864 7899.89610
926.5617 7786.33623
926.7370 7798.93124
926.9122 7793.27884
927.0874 7741.26044
927.2626 7723.09495
927.4378 7720.35067
927.6130 7711.42153
927.7882 7696.30752
927.9633 7670.58503
928.1384 7558.86834
928.3135 7425.42270
928.4886 7397.36552
928.6637 7448.50330
928.8388 7447.74555
929.0139 7482.19239
929.1889 7429.33432
929.3639 7412.84817
929.5389 7414.22031
929.7139 7399.74117
929.8889 7440.29095
930.0639 7470.17081
930.2388 7366.99415
930.4138 7340.39103
930.5887 7347.37461
930.7636 7396.68969
930.9385 7357.75781
931.1134 7207.68266
931.2882 7207.10923
931.4631 7126.21446
931.6379 7107.84418
931.8127 7120.72590
931.9875 7101.49548
932.1623 7082.18313
932.3371 7074.03222
932.5118 7086.40195
932.6866 7061.94920
932.8613 7008.88633
933.0360 6983.30720
933.2107 6934.19691
933.3854 6891.18957
933.5600 6926.57847
933.7347 6796.79869
933.9093 6816.60255
934.0839 6810.13096
934.2586 6848.77613
934.4331 6825.51121
934.6077 6774.51679
934.7823 6710.35393
934.9568 6721.74063
935.1314 6684.34472
935.3059 6678.09842
935.4804 6604.84258
935.6549 6645.14660
935.8293 6656.96338
936.0038 6649.46782
936.1782 6656.43091
936.3526 6655.38645
936.5271 6567.28283
936.7015 6527.79799
936.8758 6558.31273
937.0502 6579.05865
937.2246 6557.61642
937.3989 6577.87083
937.5732 6489.54194
937.7475 6446.57555
937.9218 6432.81320
938.0961 6410.12171
938.2703 6425.70675
938.4446 6393.47172
938.6188 6391.42375
938.7930 6324.70093
938.9672 6285.35945
939.1414 6325.23340
939.3156 6247.53347
939.4897 6162.74756
939.6639 6138.21290
939.8380 6198.77133
940.0121 6165.61472
940.1862 6192.01304
940.3603 6204.99716
940.5344 6239.36207
940.7084 6276.57367
940.8824 6242.96650
941.0565 6224.47334
941.2305 6173.60180
941.4045 6087.48471
941.5784 6098.74854
941.7524 6103.23359
941.9263 6174.25715
942.1003 6123.67232
942.2742 6108.37399
942.4481 5985.59827
942.6220 5991.94697
942.7958 5988.34254
942.9697 5989.46893
943.1435 6017.52610
943.3174 6029.87535
943.4912 6002.84216
943.6650 5977.30399
943.8387 5925.98190
944.0125 5858.52180
944.1863 5890.36772
944.3600 5880.23027
944.5337 5840.09009
944.7074 5898.21144
944.8811 5863.06830
945.0548 5824.03401
945.2284 5752.02743
945.4021 5727.06269
945.5757 5784.87685
945.7493 5723.90882
945.9229 5614.83400
946.0965 5587.35026
946.2701 5564.69973
946.4436 5612.29452
946.6172 5624.64377
946.7907 5628.04340
946.9642 5587.80082
947.1377 5561.27962
947.3112 5569.34862
947.4847 5590.46317
947.6581 5629.04691
947.8315 5620.38400
948.0050 5545.63314
948.1784 5486.85644
948.3518 5519.97209
948.5251 5486.65164
948.6985 5528.73740
948.8718 5496.42045
949.0452 5431.80704
949.2185 5423.69708
949.3918 5400.26832
949.5651 5426.64615
949.7383 5356.01171
949.9116 5360.14861
950.0848 5384.06888
950.2581 5403.95466
950.4313 5437.15223
950.6045 5440.71570
950.7776 5433.69117
950.9508 5364.30599
951.1239 5349.94973
951.2971 5260.33061
951.4702 5285.09055
951.6433 5283.47266
951.8164 5240.34244
951.9895 5276.38669
952.1625 5212.67438
952.3356 5250.78708
952.5086 5195.00041
952.6816 5247.65369
952.8546 5200.85760
953.0276 5156.78531
953.2006 5199.05539
953.3735 5171.85836
953.5465 5163.95320
953.7194 5147.07794
953.8923 5117.87391
954.0652 5131.08330
954.2381 5050.06566
954.4109 5015.18875
954.5838 5002.53231
954.7566 5002.67566
954.9294 4952.25467
955.1022 4968.80226
955.2750 4992.70206
955.4478 4965.81223
955.6206 4977.85428
955.7933 4996.92087
955.9660 4968.33123
956.1388 4997.59670
956.3115 4953.64729
956.4841 4903.51302
956.6568 4857.59756
956.8295 4850.73686
957.0021 4813.44335
957.1747 4856.88077
957.3473 4798.77990
957.5199 4784.28028
957.6925 4798.32934
957.8651 4797.73543
958.0376 4832.30514
958.2102 4776.06792
958.3827 4825.15773
958.5552 4881.62023
958.7277 4834.74223
958.9001 4759.33602
959.0726 4704.88053
959.2450 4676.59808
959.4175 4699.53533
959.5899 4641.86453
959.7623 4631.87044
959.9347 4586.36458
960.1070 4548.68195
960.2794 4551.91774
960.4517 4541.04303
960.6241 4551.71295
960.7964 4592.97952
960.9687 4591.95553
961.1409 4569.46883
961.3132 4536.80373
961.4855 4485.01060
961.6577 4476.49105
961.8299 4493.96023
962.0021 4491.97370
962.1743 4447.77853
962.3465 4406.04093
962.5186 4394.59278
962.6908 4417.36620
962.8629 4393.95791
963.0350 4394.63374
963.2071 4379.29446
963.3792 4353.22381
963.5513 4321.64414
963.7233 4368.03063
963.8954 4355.68138
964.0674 4330.28656
964.2394 4318.28547
964.4114 4295.43014
964.5834 4309.13105
964.7553 4315.70503
964.9273 4290.92460
965.0992 4237.45214
965.2711 4278.35008
965.4430 4280.66428
965.6149 4271.20267
965.7868 4267.94640
965.9587 4208.35050
966.1305 4230.01801
966.3023 4234.31875
966.4741 4235.36321
966.6459 4212.52836
966.8177 4219.32762
966.9895 4190.92229
967.1613 4175.84924
967.3330 4179.45367
967.5047 4135.48378
967.6764 4132.67806
967.8481 4098.31314
968.0198 4081.72460
968.1915 4042.71079
968.3631 4066.93826
968.5347 4060.93771
968.7064 4040.13035
968.8780 4028.04734
969.0496 4027.80158
969.2211 3987.80475
969.3927 4026.47040
969.5642 3989.62744
969.7358 3966.81307
969.9073 3960.54629
970.0788 4006.64606
970.2503 4019.24107
970.4217 4002.20197
970.5932 3965.21565
970.7646 3959.89094
970.9360 3972.99794
971.1074 3982.64387
971.2788 3998.55659
971.4502 3977.44203
971.6216 3937.62952
971.7929 3907.58581
971.9643 3895.95335
972.1356 3930.74834
972.3069 3924.33820
972.4782 3888.27347
972.6494 3852.94601
972.8207 3846.49491
972.9919 3840.45340
973.1632 3808.09549
973.3344 3771.04774
973.5056 3751.96067
973.6768 3744.32175
973.8479 3804.53203
974.0191 3801.41911
974.1902 3784.21618
974.3614 3755.68797
974.5325 3750.58853
974.7036 3767.87339
974.8746 3749.25735
975.0457 3718.35350
975.2167 3681.36719
975.3878 3671.35262
975.5588 3670.79967
975.7298 3689.29282
975.9008 3659.59728
976.0718 3672.45852
976.2427 3637.72497
976.4137 3619.25229
976.5846 3623.00008
976.7555 3596.45840
976.9264 3582.51173
977.0973 3590.43737
977.2682 3609.13533
977.4390 3586.68959
977.6098 3610.56891
977.7807 3624.72037
977.9515 3625.56004
978.1223 3628.07904
978.2930 3587.46782
978.4638 3575.44624
978.6346 3536.88299
978.8053 3507.71992
978.9760 3489.39060
979.1467 3474.33803
979.3174 3487.48598
979.4881 3473.78507
979.6587 3488.14133
979.8294 3479.70370
980.0000 3454.92328
980.1706 3444.84727
980.3412 3412.38697
980.5118 3397.41632
980.6824 3385.62002
980.8529 3430.98253
981.0235 3438.27330
981.1940 3446.23989
981.3645 3384.49364
981.5350 3392.89031
981.7055 3371.89863
981.8759 3387.44271
982.0464 3373.92612
982.2168 3358.60731
982.3872 3371.61191
982.5576 3353.01636
982.7280 3353.26211
982.8984 3367.14734
983.0687 3343.59570
983.2391 3322.37874
983.4094 3315.96860
983.5797 3308.43208
983.7500 3307.24425
983.9203 3279.76051
984.0906 3288.95589
984.2608 3260.03858
984.4311 3283.34446
984.6013 3243.85962
984.7715 3284.40940
984.9417 3278.42933
985.1119 3262.90573
985.2820 3222.51979
985.4522 3206.48419
985.6223 3212.46426
985.7924 3203.73991
985.9625 3222.82698
986.1326 3245.49800
986.3027 3220.69710
986.4727 3232.51388
986.6428 3210.02718
986.8128 3191.22682
986.9828 3166.95840
987.1528 3166.15969
987.3228 3170.91098
987.4928 3175.25267
987.6627 3184.16133
987.8327 3158.31597
988.0026 3142.79236
988.1725 3124.72928
988.3424 3094.95181
988.5123 3102.03779
988.6821 3095.34093
988.8520 3103.38945
989.0218 3094.23502
989.1916 3115.94349
989.3614 3060.89409
989.5312 3055.15978
989.7010 3029.43729
989.8707 3028.55667
990.0405 3037.64965
990.2102 3043.28156
990.3799 3019.01313
990.5496 3008.71185
990.7193 2990.38253
990.8890 2987.18770
991.0586 2975.84195
991.2283 3004.12440
991.3979 2993.78216
991.5675 3010.51406
991.7371 2984.40246
991.9067 2961.75193
992.0762 2934.04291
992.2458 2941.94807
992.4153 2969.24749
992.5848 2972.54472
992.7543 2975.00228
992.9238 2939.53147
993.0933 2945.53201
993.2627 2944.69235
993.4322 2925.54384
993.6016 2926.28111
993.7710 2887.45162
993.9404 2903.09810
994.1098 2893.41121
994.2792 2878.99351
994.4485 2863.40847
994.6179 2874.13982
994.7872 2870.88355
994.9565 2865.02636
995.1258 2861.99537
995.2951 2868.83558
995.4643 2883.66288
995.6336 2864.45293
995.8028 2839.93875
995.9720 2811.55390
996.1412 2829.94466
996.3104 2833.97916
996.4796 2826.79079
996.6487 2833.83580
996.8179 2827.11846
996.9870 2845.98025
997.1561 2794.59672
997.3252 2796.25557
997.4943 2770.61500
997.6634 2765.00357
997.8324 2775.30485
998.0014 2763.46759
998.1705 2752.42904
998.3395 2722.67205
998.5085 2719.66154
998.6774 2730.04474
998.8464 2709.40122
999.0153 2718.61708
999.1843 2715.81136
999.3532 2716.99918
999.5221 2706.12447
999.6910 2721.09512
999.8599 2751.65081
1000.0287 2760.37516
1000.1976 2742.18920
1000.3664 2736.98736
1000.5352 2732.07223
1000.7040 2736.70064
1000.8728 2709.31930
1001.0415 2679.62375
1001.2103 2675.28206
1001.3790 2655.96971
1001.5478 2647.16345
1001.7165 2642.57600
1001.8851 2633.95405
1002.0538 2637.76327
1002.2225 2657.62857
1002.3911 2658.75495
1002.5598 2633.19630
1002.7284 2630.39058
1002.8970 2609.68562
1003.0656 2642.82175
1003.2341 2621.48192
1003.4027 2611.59023
1003.5712 2557.74913
1003.7398 2564.28215
1003.9083 2568.60337
1004.0768 2549.49582
1004.2453 2534.85284
1004.4137 2554.45190
1004.5822 2539.91132
1004.7506 2555.72164
1004.9190 2533.31686
1005.0874 2524.34676
1005.2558 2514.06596
1005.4242 2517.79326
1005.5926 2526.94768
1005.7609 2523.11798
1005.9292 2504.17427
1006.0976 2522.56503
1006.2659 2507.16430
1006.4342 2514.04548
1006.6024 2513.65636
1006.7707 2512.03847
1006.9389 2516.01153
1007.1071 2521.41817
1007.2754 2512.89862
1007.4436 2502.94549
1007.6117 2483.79698
1007.7799 2473.55714
1007.9481 2469.31784
1008.1162 2481.99477
1008.2843 2471.12005
1008.4524 2466.81932
1008.6205 2460.40918
1008.7886 2452.89313
1008.9566 2436.34554
1009.1247 2432.74112
1009.2927 2419.34740
1009.4607 2417.91383
1009.6287 2412.85534
1009.7967 2417.91383
1009.9647 2406.67048
1010.1327 2407.42823
1010.3006 2385.14632
1010.4685 2389.52898
1010.6364 2385.08489
1010.8043 2392.99005
1010.9722 2362.18860
1011.1401 2347.09507
1011.3079 2361.94284
1011.4758 2377.32308
1011.6436 2368.10723
1011.8114 2378.42899
1011.9792 2356.43380
1012.1470 2387.91108
1012.3147 2377.34356
1012.4825 2384.65481
1012.6502 2385.84263
1012.8179 2365.24007
1012.9856 2350.22846
1013.1533 2365.30151
1013.3210 2330.97755
1013.4886 2320.32811
1013.6563 2316.23218
1013.8239 2309.88347
1013.9915 2317.29712
1014.1591 2307.97886
1014.3267 2310.41595
1014.4942 2298.78348
1014.6618 2295.99825
1014.8293 2291.75895
1014.9969 2297.90286
1015.1644 2306.70912
1015.3319 2301.77352
1015.4993 2298.88588
1015.6668 2284.93921
1015.8342 2287.97021
1016.0017 2278.24236
1016.1691 2286.47519
1016.3365 2279.36874
1016.5039 2263.02595
1016.6712 2270.80823
1016.8386 2269.53849
1017.0059 2260.11783
1017.1733 2261.03942
1017.3406 2243.77504
1017.5079 2255.73518
1017.6752 2236.36140
1017.8424 2227.92376
1018.0097 2215.71787
1018.1769 2237.42634
1018.3441 2215.49259
1018.5113 2211.56049
1018.6785 2214.24333
1018.8457 2233.20752
1019.0129 2216.80329
1019.1800 2232.44977
1019.3471 2230.83188
1019.5142 2225.99867
1019.6813 2227.65753
1019.8484 2221.57506
1020.0155 2214.30477
1020.1826 2203.18430
1020.3496 2186.47288
1020.5166 2177.89189
1020.6836 2170.94927
1020.8506 2175.02473
1021.0176 2163.43323
1021.1846 2172.40333
1021.3515 2155.50759
1021.5185 2166.27990
1021.6854 2154.85224
1021.8523 2157.12548
1022.0192 2157.98563
1022.1861 2163.14651
1022.3529 2149.09745
1022.5198 2160.60703
1022.6866 2141.04893
1022.8534 2147.25427
1023.0202 2129.33455
1023.1870 2133.22569
1023.3538 2127.73713
1023.5205 2141.78620
1023.6873 2125.23861
1023.8540 2131.58731
1024.0207 2121.98234
1024.1874 2129.62126
1024.3541 2113.91334
1024.5207 2123.27256
1024.6874 2114.17958
1024.8540 2122.57625
1025.0206 2097.85727
1025.1872 2105.76243
1025.3538 2094.17092
1025.5204 2102.05560
1025.6870 2087.55599
1025.8535 2084.17684
1026.0201 2083.15285
1026.1866 2084.95507
1026.3531 2085.54898
1026.5196 2082.57942
1026.6860 2076.16928
1026.8525 2075.92352
1027.0189 2062.89844
1027.1853 2077.07039
1027.3518 2064.08626
1027.5181 2072.58533
1027.6845 2061.11671
1027.8509 2049.48425
1028.0172 2045.75694
1028.1836 2035.47614
1028.3499 2025.13390
1028.5162 2031.81028
1028.6825 2020.97652
1028.8488 2029.41415
1029.0150 2018.74424
1029.1813 2012.88705
1029.3475 2006.37450
1029.5137 2008.93447
1029.6799 2011.78114
1029.8461 2002.15569
1030.0123 1992.46880
1030.1784 2004.75661
1030.3446 1998.28503
1030.5107 2012.60033
1030.6768 1991.17858
1030.8429 1980.30386
1031.0090 1969.06051
1031.1750 1983.84685
1031.3411 1971.10848
1031.5071 1978.93172
1031.6732 1985.21899
1031.8392 1975.94169
1032.0051 1959.12787
1032.1711 1964.94410
1032.3371 1958.63635
1032.5030 1961.79022
1032.6690 1959.76274
1032.8349 1964.78026
1033.0008 1942.15020
1033.1667 1955.58488
1033.3325 1947.45444
1033.4984 1950.89503
1033.6642 1950.97695
1033.8300 1964.49354
1033.9959 1945.63175
1034.1616 1954.84761
1034.3274 1944.34153
1034.4932 1949.29762
1034.6589 1934.24505
1034.8247 1939.93840
1034.9904 1922.63306
1035.1561 1936.66165
1035.3218 1926.70852
1035.4875 1929.24800
1035.6531 1915.36277
1035.8188 1926.66756
1035.9844 1918.31185
1036.1500 1915.23990
1036.3156 1902.05098
1036.4812 1900.22828
1036.6468 1899.12238
1036.8123 1906.12643
1036.9779 1894.20726
1037.1434 1917.86130
1037.3089 1901.17035
1037.4744 1914.05207
1037.6399 1902.17385
1037.8053 1896.93105
1037.9708 1886.42497
1038.1362 1897.79120
1038.3016 1893.63383
1038.4670 1897.97552
1038.6324 1898.83567
1038.7978 1870.24602
1038.9632 1895.47700
1039.1285 1883.04583
1039.2938 1881.91944
1039.4592 1877.39343
1039.6245 1869.46779
1039.7897 1877.14768
1039.9550 1871.20857
1040.1203 1873.87093
1040.2855 1852.24438
1040.4507 1874.23956
1040.6159 1867.52222
1040.7811 1858.32684
1040.9463 1852.08054
1041.1115 1847.32925
1041.2766 1848.53755
1041.4418 1835.63535
1041.6069 1825.88702
1041.7720 1829.94200
1041.9371 1818.90345
1042.1021 1833.23923
1042.2672 1821.07429
1042.4323 1831.55989
1042.5973 1825.78462
1042.7623 1827.97595
1042.9273 1825.49790
1043.0923 1833.81266
1043.2572 1829.14329
1043.4222 1814.15216
1043.5871 1805.83740
1043.7521 1828.91801
1043.9170 1824.35104
1044.0819 1810.87541
1044.2467 1814.58223
1044.4116 1805.48925
1044.5765 1799.73446
1044.7413 1806.67707
1044.9061 1806.10364
1045.0709 1802.76545
1045.2357 1793.34480
1045.4005 1786.62746
1045.5652 1785.68539
1045.7300 1774.17581
1045.8947 1769.34260
1046.0594 1774.74924
1046.2241 1772.59887
1046.3888 1781.09794
1046.5535 1768.52341
1046.7181 1781.24130
1046.8828 1767.68375
1047.0474 1758.36549
1047.2120 1750.19409
1047.3766 1766.41401
1047.5412 1758.14021
1047.7057 1755.37545
1047.8703 1749.74354
1048.0348 1758.01733
1048.1993 1741.55167
1048.3639 1746.46679
1048.5283 1731.80333
1048.6928 1736.75942
1048.8573 1743.51772
1049.0217 1745.11513
1049.1861 1722.89467
1049.3506 1743.98875
1049.5150 1727.46164
1049.6793 1728.64946
1049.8437 1733.21643
1050.0081 1733.89226
1050.1724 1715.68582
1050.3367 1725.02456
1050.5010 1719.84320
1050.6653 1720.17087
1050.8296 1701.75963
1050.9939 1715.39910
1051.1581 1713.84265
1051.3224 1721.50205
1051.4866 1710.77070
1051.6508 1706.65428
1051.8150 1698.99487
1051.9791 1689.00079
1052.1433 1693.42440
1052.3074 1691.45835
1052.4716 1681.79194
1052.6357 1684.72053
1052.7998 1683.79895
1052.9639 1681.07515
1053.1279 1675.40228
1053.2920 1679.37533
1053.4560 1675.66851
1053.6201 1688.05872
1053.7841 1670.61003
1053.9481 1675.97571
1054.1120 1659.94011
1054.2760 1666.88272
1054.4399 1658.75229
1054.6039 1661.12793
1054.7678 1655.57794
1054.9317 1657.31871
1055.0956 1666.71889
1055.2595 1662.37719
1055.4233 1646.42352
1055.5872 1648.34861
1055.7510 1648.43053
1055.9148 1648.96300
1056.0786 1644.29363
1056.2424 1655.31170
1056.4062 1644.88754
1056.5699 1656.23329
1056.7336 1642.86005
1056.8974 1646.50544
1057.0611 1627.62316
1057.2248 1630.89991
1057.3885 1624.08018
1057.5521 1623.09715
1057.7158 1617.44476
1057.8794 1616.19550
1058.0430 1633.00932
1058.2066 1636.14271
1058.3702 1615.64255
1058.5338 1625.94383
1058.6973 1611.99716
1058.8609 1617.97723
1059.0244 1606.18093
1059.1879 1609.94919
1059.3514 1607.96266
1059.5149 1610.85030
1059.6784 1604.35824
1059.8418 1595.28574
1060.0053 1600.18038
1060.1687 1597.08795
1060.3321 1581.62579
1060.4955 1588.73224
1060.6589 1587.97449
1060.8222 1583.65328
1060.9856 1587.95401
1061.1489 1582.91601
1061.3122 1575.58428
1061.4755 1587.56490
1061.6388 1578.73815
1061.8021 1598.03002
1061.9654 1573.63871
1062.1286 1573.61823
1062.2918 1581.27763
1062.4550 1565.75403
1062.6182 1572.94240
1062.7814 1577.50937
1062.9446 1576.07579
1063.1077 1572.67616
1063.2709 1547.24039
1063.4340 1554.59260
1063.5971 1550.68098
1063.7602 1562.57968
1063.9233 1547.71142
1064.0863 1550.16899
1064.2494 1540.23634
1064.4124 1542.42766
1064.5754 1538.35221
1064.7384 1550.45570
1064.9014 1541.91567
1065.0644 1546.05257
1065.2274 1531.71679
1065.3903 1534.37915
1065.5532 1530.54945
1065.7162 1534.17435
1065.8790 1526.20775
1066.0419 1529.83266
1066.2048 1527.00646
1066.3677 1532.49502
1066.5305 1515.61975
1066.6933 1518.32307
1066.8561 1517.60628
1067.0189 1516.45942
1067.1817 1505.15463
1067.3445 1504.29449
1067.5072 1494.07512
1067.6699 1506.38341
1067.8327 1494.56663
1067.9954 1503.84393
1068.1580 1495.28342
1068.3207 1495.32438
1068.4834 1493.54265
1068.6460 1493.56313
1068.8086 1489.73343
1068.9713 1492.45723
1069.1339 1482.34026
1069.2964 1481.48011
1069.4590 1472.96056
1069.6216 1481.86923
1069.7841 1480.80428
1069.9466 1477.13842
1070.1091 1470.85116
1070.2716 1480.57901
1070.4341 1467.22625
1070.5966 1474.18935
1070.7590 1462.49544
1070.9214 1479.32975
1071.0839 1464.56389
1071.2463 1474.59894
1071.4086 1459.38253
1071.5710 1450.55579
1071.7334 1449.77756
1071.8957 1453.81206
1072.0580 1451.06778
1072.2204 1445.66114
1072.3827 1444.41188
1072.5449 1447.19712
1072.7072 1433.51669
1072.8695 1434.66355
1073.0317 1433.39381
1073.1939 1438.14510
1073.3561 1426.22592
1073.5183 1438.26797
1073.6805 1423.52260
1073.8427 1435.81041
1074.0048 1427.55710
1074.1669 1436.38384
1074.3291 1418.95563
1074.4912 1427.14750
1074.6532 1416.51855
1074.8153 1420.96264
1074.9774 1418.27980
1075.1394 1415.20785
1075.3014 1410.70231
1075.4635 1420.63496
1075.6255 1401.75269
1075.7874 1414.10194
1075.9494 1398.78314
1076.1114 1409.67833
1076.2733 1393.41746
1076.4352 1404.61985
1076.5971 1387.27355
1076.7590 1395.95694
1076.9209 1388.74809
1077.0828 1394.83056
1077.2446 1393.76561
1077.4064 1392.18868
1077.5683 1372.69201
1077.7301 1377.48426
1077.8918 1383.75105
1078.0536 1379.22503
1078.2154 1380.18758
1078.3771 1379.90086
1078.5388 1370.25493
1078.7006 1374.76046
1078.8623 1368.43224
1079.0239 1364.78685
1079.1856 1361.16195
1079.3473 1371.09460
1079.5089 1363.27136
1079.6705 1361.91970
1079.8321 1357.74184
1079.9937 1366.19995
1080.1553 1344.47100
1080.3169 1355.53004
1080.4784 1341.05090
1080.6399 1356.51306
1080.8014 1344.57340
1080.9629 1357.18889
1081.1244 1342.75071
1081.2859 1348.46454
1081.4474 1330.34002
1081.6088 1341.07138
1081.7702 1333.88301
1081.9316 1337.93798
1082.0930 1336.97544
1082.2544 1340.78466
1082.4158 1327.88246
1082.5771 1337.34407
1082.7385 1327.88246
1082.8998 1336.89352
1083.0611 1325.71161
1083.2224 1323.06973
1083.3837 1315.20553
1083.5449 1323.33597
1083.7062 1311.04815
1083.8674 1320.28449
1084.0286 1308.81587
1084.1898 1319.09667
1084.3510 1299.62049
1084.5122 1316.20904
1084.6734 1296.58950
1084.8345 1303.67547
1084.9956 1296.17990
1085.1567 1301.19742
1085.3178 1284.83415
1085.4789 1311.21199
1085.6400 1289.31921
1085.8010 1291.63341
1085.9621 1286.43157
1086.1231 1297.49060
1086.2841 1271.76811
1086.4451 1294.99208
1086.6061 1281.18877
1086.7670 1291.59245
1086.9280 1278.87457
1087.0889 1283.35962
1087.2498 1277.23619
1087.4107 1282.88858
1087.5716 1282.15132
1087.7325 1273.42697
1087.8933 1267.73362
1088.0542 1295.48359
1088.2150 1274.94247
1088.3758 1272.54634
1088.5366 1270.60077
1088.6974 1277.03139
1088.8582 1261.56923
1089.0189 1273.36553
1089.1796 1270.82605
1089.3404 1274.77863
1089.5011 1261.13916
1089.6618 1275.27014
1089.8224 1262.24506
1089.9831 1277.09283
1090.1438 1263.96535
1090.3044 1277.48195
1090.4650 1261.42587
1090.6256 1268.69616
1090.7862 1257.88289
1090.9468 1264.35447
1091.1073 1263.10521
1091.2679 1257.18658
1091.4284 1267.91793
1091.5889 1271.37900
1091.7494 1252.55817
1091.9099 1266.66867
1092.0703 1252.37385
1092.2308 1261.01628
1092.3912 1255.77348
1092.5516 1267.81553
1092.7121 1251.63658
1092.8724 1265.00982
1093.0328 1249.85485
1093.1932 1267.18066
1093.3535 1257.88289
1093.5139 1269.31055
1093.6742 1255.46628
1093.8345 1261.03676
1093.9948 1256.20355
1094.1550 1262.01978
1094.3153 1247.43825
1094.4755 1265.39893
1094.6358 1251.90282
1094.7960 1249.11758
1094.9562 1253.25448
1095.1163 1261.54875
1095.2765 1249.09710
1095.4367 1255.79396
1095.5968 1248.70799
1095.7569 1252.57865
1095.9170 1251.45226
1096.0771 1260.15613
1096.2372 1253.70503
1096.3973 1260.25853
1096.5573 1251.10411
1096.7173 1260.44285
1096.8773 1253.31592
1097.0374 1260.21757
1097.1973 1247.13105
1097.3573 1255.93732
1097.5173 1246.02515
1097.6772 1259.56222
1097.8371 1247.97072
1097.9970 1251.43178
1098.1569 1248.54415
1098.3168 1258.25152
1098.4767 1247.31537
1098.6365 1257.00226
1098.7964 1255.83492
1098.9562 1256.89986
1099.1160 1245.04212
1099.2758 1263.82200
1099.4356 1246.18898
1099.5953 1267.24210
1099.7551 1255.26149
1099.9148 1253.72551
1100.0745 1248.03216
1100.2342 1252.00522
1100.3939 1249.44525
1100.5536 1260.83196
1100.7132 1252.25097
1100.8729 1254.23750
1101.0325 1256.28547
1101.1921 1261.65115
1101.3517 1257.14562
1101.5113 1259.91037
1101.6709 1247.54064
1101.8304 1252.21001
1101.9899 1236.74785
1102.1495 1259.64414
1102.3090 1247.56112
1102.4685 1260.01277
1102.6279 1253.33640
1102.7874 1252.82440
1102.9468 1245.45172
1103.1063 1249.77293
1103.2657 1246.41426
1103.4251 1255.89636
1103.5845 1245.47220
1103.7438 1261.97882
1103.9032 1246.27090
1104.0625 1251.53418
1104.2219 1249.44525
1104.3812 1255.30245
1104.5405 1247.66352
1104.6997 1260.25853
1104.8590 1248.85134
1105.0183 1251.30891
1105.1775 1248.91278
1105.3367 1261.05724
1105.4959 1254.07366
1105.6551 1260.83196
1105.8143 1245.30836
1105.9735 1260.17661
1106.1326 1245.08308
1106.2917 1251.63658
1106.4508 1246.96721
1106.6099 1251.41130
1106.7690 1240.29083
1106.9281 1251.32939
1107.0872 1237.85375
1107.2462 1257.22754
1107.4052 1253.88935
1107.5642 1249.48621
1107.7232 1249.17902
1107.8822 1258.21056
1108.0412 1249.38382
1108.2001 1252.02570
1108.3591 1251.18603
1108.5180 1254.83141
1108.6769 1246.31186
1108.8358 1254.03270
1108.9947 1246.35282
1109.1535 1261.42587
1109.3124 1251.57514
1109.4712 1249.69101
1109.6300 1258.68159
1109.7888 1256.73602
1109.9476 1247.72496
1110.1064 1261.20060
1110.2651 1252.43529
1110.4239 1252.31241
1110.5826 1248.07312
1110.7413 1263.00281
1110.9000 1247.64304
1111.0587 1256.51075
1111.2173 1240.22940
1111.3760 1253.23400
1111.5346 1259.39838
1111.6932 1261.28251
1111.8518 1244.98068
1112.0104 1260.29949
1112.1690 1240.90522
1112.3276 1259.84894
1112.4861 1245.04212
1112.6446 1256.24451
1112.8032 1253.95079
1112.9617 1254.52422
1113.1201 1248.60559
1113.2786 1252.14857
1113.4371 1256.36739
1113.5955 1257.49377
1113.7539 1249.97773
1113.9123 1253.33640
1114.0707 1249.24046
1114.2291 1254.54470
1114.3875 1245.14452
1114.5458 1254.60614
1114.7042 1244.28437
1114.8625 1248.15503
1115.0208 1247.66352
1115.1791 1254.46278
1115.3374 1246.90577
1115.4956 1249.07662
1115.6539 1249.28142
1115.8121 1249.34286
1115.9703 1254.19654
1116.1285 1258.35392
1116.2867 1246.88529
1116.4449 1256.46979
1116.6030 1256.34691
1116.7612 1262.47034
1116.9193 1241.13050
1117.0774 1258.08768
1117.2355 1246.72146
1117.3936 1256.77698
1117.5516 1250.75595
1117.7097 1255.03621
1117.8677 1248.54415
1118.0257 1256.98178
1118.1837 1249.15854
1118.3417 1260.64764
1118.4997 1254.27846
1118.6577 1251.82090
1118.8156 1252.53769
1118.9735 1250.08013
1119.1315 1245.67699
1119.2894 1262.18362
1119.4472 1246.14802
1119.6051 1253.99175
1119.7630 1241.78585
1119.9208 1251.43178
1120.0786 1244.81685
1120.2364 1252.41481
1120.3942 1248.01168
1120.5520 1256.98178
1120.7098 1252.57865
1120.8675 1257.55521
1121.0253 1255.13861
1121.1830 1251.63658
1121.3407 1251.26795
1121.4984 1258.64063
1121.6560 1258.10816
