# Averages = 100
# wavelength [µm]	intensity
446.8250 14.33578
447.0374 36746.70328
447.2498 1231.48457
447.4621 1220.24122
447.6745 1232.56999
447.8868 1240.72091
448.0992 1240.10652
448.3115 1235.25283
448.5238 1254.42182
448.7360 1231.87368
448.9483 1241.43770
449.1606 1245.39028
449.3728 1271.07180
449.5850 1234.49508
449.7972 1248.25743
450.0094 1240.29083
450.2216 1251.77994
450.4337 1251.82090
450.6459 1737.76292
450.8580 2101.09306
451.0701 2133.53288
451.2822 2157.00261
451.4943 2141.41756
451.7064 2130.39949
451.9184 2118.95135
452.1305 2221.04259
452.3425 2316.51889
452.5545 2222.41473
452.7665 2234.92782
452.9785 2322.13033
453.1905 2355.71701
453.4024 2319.16077
453.6143 2426.94537
453.8263 2410.13154
454.0382 2614.66218
454.2501 2401.73487
454.4619 2380.27216
454.6738 2514.33219
454.8856 2647.88024
455.0975 2445.88908
455.3093 2444.78318
455.5211 2503.15028
455.7329 2481.54421
455.9446 2540.97627
456.1564 2553.77607
456.3681 2641.98209
456.5798 2745.01539
456.7916 2675.69165
457.0033 2647.26585
457.2149 2615.85000
457.4266 2663.21952
457.6382 2693.61138
457.8499 2661.49923
458.0615 2781.71499
458.2731 2689.96599
458.4847 2805.02088
458.6963 2910.77798
458.9078 2933.14180
459.1194 3094.95181
459.3309 3105.56029
459.5424 2952.43367
459.7539 2857.67415
459.9654 2872.48097
460.1769 2920.30104
460.3883 2904.34736
460.5998 2766.86722
460.8112 2757.97904
461.0226 2808.40003
461.2340 2902.72947
461.4454 2864.14574
461.6567 2844.11660
461.8681 2857.36696
462.0794 2812.04541
462.2907 2925.91247
462.5020 3191.61594
462.7133 3282.83247
462.9246 3052.66126
463.1359 2910.06120
463.3471 2779.01167
463.5583 2852.53375
463.7696 3254.20186
463.9808 3089.11510
464.1919 3011.27181
464.4031 3006.29525
464.6143 3032.38637
464.8254 2953.06854
465.0365 2893.88224
465.2476 3179.94252
465.4587 3346.17614
465.6698 2924.21266
465.8809 2993.88456
466.0919 2992.32810
466.3030 3032.75500
466.5140 3070.49907
466.7250 2983.60375
466.9360 3128.88666
467.1469 3058.37509
467.3579 2852.04224
467.5688 2840.86033
467.7798 3095.58668
467.9907 3204.06759
468.2016 3103.49184
468.4125 3054.79115
468.6233 2891.17892
468.8342 2932.13830
469.0450 3108.48889
469.2559 3214.69655
469.4667 3156.14512
469.6775 2919.11322
469.8882 3077.66696
470.0990 3054.05388
470.3098 3325.96269
470.5205 3151.00472
470.7312 3225.07975
470.9419 3436.98308
471.1526 3324.48815
471.3633 3051.26864
471.5739 3080.53411
471.7846 3069.12693
471.9952 2995.83013
472.2058 3114.24368
472.4164 3071.62545
472.6270 3069.43412
472.8376 3204.02663
473.0481 3387.87278
473.2587 3461.29246
473.4692 3369.05195
473.6797 3267.73894
473.8902 3029.25298
474.1007 3001.44156
474.3111 3031.38286
474.5216 2960.74842
474.7320 3071.05202
474.9424 3237.03989
475.1528 3303.86511
475.3632 3152.39734
475.5736 3119.52744
475.7840 3115.71822
475.9943 3174.96595
476.2046 3180.04492
476.4149 3247.13637
476.6252 3268.43525
476.8355 3383.44917
477.0458 3470.52880
477.2561 3453.42826
477.4663 3306.22027
477.6765 3315.62045
477.8867 3325.16398
478.0969 3314.84222
478.3071 3306.93706
478.5173 3396.92481
478.7274 3382.83478
478.9375 3445.93270
479.1477 3407.96336
479.3578 3537.41546
479.5679 3489.18580
479.7779 3524.49278
479.9880 3525.00477
480.1980 3570.83831
480.4081 3574.17650
480.6181 3446.54709
480.8281 3558.65290
481.0381 3507.31032
481.2480 3493.22030
481.4580 3579.58314
481.6679 3546.16029
481.8778 3489.67731
482.0877 3511.24242
482.2976 3410.33900
482.5075 3498.64741
482.7174 3578.76395
482.9272 3645.85541
483.1371 3517.98024
483.3469 3566.33278
483.5567 3691.34079
483.7665 3574.27890
483.9762 3626.35875
484.1860 3769.38888
484.3957 3760.64406
484.6055 3626.13347
484.8152 3687.92069
485.0249 3817.74143
485.2346 3801.78775
485.4442 3786.50990
485.6539 3824.45876
485.8635 3817.22943
486.0732 3687.01958
486.2828 3720.72915
486.4924 3708.68709
486.7019 3829.21005
486.9115 3791.81414
487.1210 3788.98794
487.3306 3915.67529
487.5401 3899.06626
487.7496 3942.60608
487.9591 3986.18685
488.1686 3939.18597
488.3780 3884.97624
488.5875 3996.83629
488.7969 4088.29858
489.0063 4063.74343
489.2157 4115.67992
489.4251 4036.09585
489.6345 4014.85842
489.8438 4121.78287
490.0531 3954.38190
490.2625 4026.12225
490.4718 4114.20538
490.6811 4177.52858
490.8903 4195.10015
491.0996 4228.13388
491.3089 4238.70140
491.5181 4287.11538
491.7273 4291.53900
491.9365 4275.13477
492.1457 4345.97400
492.3549 4365.55259
492.5640 4282.20026
492.7732 4334.99689
492.9823 4411.14037
493.1914 4518.78161
493.4005 4508.68512
493.6096 4449.94938
493.8187 4426.84829
494.0277 4515.75061
494.2368 4520.15375
494.4458 4569.24356
494.6548 4621.75348
494.8638 4677.35583
495.0728 4640.71767
495.2817 4653.78371
495.4907 4689.62316
495.6996 4710.47148
495.9085 4728.92368
496.1174 4806.68505
496.3263 4785.91865
496.5352 4815.83947
496.7440 4908.87870
496.9529 4932.59417
497.1617 4874.94385
497.3705 4926.26595
497.5793 5038.43320
497.7881 4931.48827
497.9969 5025.63339
498.2056 5083.11988
498.4144 5112.22151
498.6231 5158.38273
498.8318 5176.75301
499.0405 5197.06886
499.2492 5173.16906
499.4578 5243.59871
499.6665 5231.51569
499.8751 5365.26853
500.0837 5354.78293
500.2923 5379.48143
500.5009 5400.10448
500.7095 5514.56545
500.9180 5472.04962
501.1266 5550.32299
501.3351 5561.09530
501.5436 5651.73840
501.7521 5619.54433
501.9606 5726.40734
502.1691 5755.11986
502.3775 5716.92525
502.5860 5778.56910
502.7944 5822.76427
503.0028 5891.80130
503.2112 5891.18691
503.4196 5939.92856
503.6279 5984.53332
503.8363 5936.85661
504.0446 6098.19559
504.2529 6060.98400
504.4612 6139.11400
504.6695 6227.70913
504.8778 6219.86541
505.0860 6257.73235
505.2943 6237.68274
505.5025 6333.71199
505.7107 6346.81899
505.9189 6419.54236
506.1271 6484.97497
506.3353 6477.37700
506.5434 6457.18403
506.7516 6556.24428
506.9597 6631.36377
507.1678 6678.75377
507.3759 6643.48775
507.5840 6716.14968
507.7920 6779.45239
508.0001 6792.21124
508.2081 6917.19877
508.4161 6882.30138
508.6241 7060.41323
508.8321 7030.90200
509.0401 6993.62896
509.2480 7128.89730
509.4560 7114.25432
509.6639 7202.23506
509.8718 7219.86807
510.0797 7377.80742
510.2876 7384.46332
510.4955 7465.41952
510.7033 7483.81028
510.9112 7530.07390
511.1190 7638.67768
511.3268 7589.54691
511.5346 7688.01325
511.7424 7724.95860
511.9501 7835.85611
512.1579 7871.44981
512.3656 7909.99258
512.5733 7878.72010
512.7810 8020.78769
512.9887 8107.23245
513.1964 8136.02689
513.4040 8164.08406
513.6117 8239.71555
513.8193 8333.43060
514.0269 8346.72192
514.2345 8473.38878
514.4421 8400.74733
514.6497 8424.19658
514.8572 8586.70290
515.0647 8644.61945
515.2723 8712.55058
515.4798 8787.34239
515.6873 8853.20507
515.8947 8923.42992
516.1022 8891.68640
516.3097 8990.52137
516.5171 9096.87239
516.7245 9161.32197
516.9319 9241.11083
517.1393 9276.90932
517.3467 9260.36174
517.5540 9246.08739
517.7614 9512.77388
517.9687 9532.88494
518.1760 9561.82274
518.3833 9723.34603
518.5906 9708.88737
518.7978 9902.33850
519.0051 9850.54537
519.2123 10028.43194
519.4196 9831.31494
519.6268 10019.95335
519.8340 10102.56840
520.0411 10143.05675
520.2483 10361.47261
520.4554 10355.61542
520.6626 10624.18605
520.8697 10542.96360
521.0768 10757.73409
521.2839 10698.93690
521.4909 10736.82433
521.6980 10878.05225
521.9050 11066.24010
522.1121 10991.81692
522.3191 11233.23147
522.5261 11218.54754
522.7331 11261.41152
522.9400 11461.96910
523.1470 11482.85838
523.3539 11601.72249
523.5608 11622.69369
523.7677 11644.15640
523.9746 11762.20132
524.1815 12040.66363
524.3884 11955.75485
524.5952 11949.07847
524.8020 12232.53782
525.0089 12150.00468
525.2157 12306.22374
525.4225 12355.27259
525.6292 12418.10427
525.8360 12489.86510
526.0427 12621.81572
526.2494 12790.89602
526.4562 12751.88222
526.6629 12867.05998
526.8695 12889.30092
527.0762 13142.20458
527.2829 13213.78109
527.4895 13310.34282
527.6961 13410.50897
527.9027 13516.51183
528.1093 13586.59332
528.3159 13673.61151
528.5224 13613.44219
528.7290 14009.68319
528.9355 13821.57726
529.1420 14221.62747
529.3485 14113.92480
529.5550 14307.27353
529.7615 14243.31546
529.9680 14395.11090
530.1744 14457.55347
530.3808 14675.58022
530.5872 14580.24728
530.7936 14770.01206
531.0000 14821.35464
531.2064 15022.85429
531.4127 15098.97728
531.6191 15197.48458
531.8254 15293.86199
532.0317 15521.37084
532.2380 15433.14435
532.4443 15577.83334
532.6505 15425.64878
532.8568 15678.14285
533.0630 16046.81818
533.2692 15948.12657
533.4754 16089.82552
533.6816 16300.86870
533.8878 16191.22046
534.0939 16542.28326
534.3001 16567.53472
534.5062 16675.72890
534.7123 16562.16904
534.9184 16693.36192
535.1245 16828.87601
535.3306 16861.27487
535.5366 17214.77476
535.7426 17233.51367
535.9487 17272.01549
536.1547 17280.06400
536.3607 17594.07905
536.5666 17461.84171
536.7726 17639.05245
536.9785 17835.30929
537.1845 17993.31008
537.3904 17861.05226
537.5963 17947.35366
537.8022 18157.24998
538.0080 18318.34320
538.2139 18395.28539
538.4197 18561.70333
538.6256 18499.83419
538.8314 18571.75885
539.0372 18734.03990
539.2430 19091.12373
539.4487 18894.19105
539.6545 19228.87011
539.8602 19149.24508
540.0659 19348.24620
540.2716 19751.32741
540.4773 19832.32458
540.6830 19947.29754
540.8887 20093.05148
541.0943 19846.68084
541.2999 19997.55470
541.5056 20019.50892
541.7112 20264.73270
541.9167 20143.08336
542.1223 20191.66118
542.3279 20562.24112
542.5334 20636.31615
542.7389 20877.01392
542.9444 20924.21960
543.1499 21036.67356
543.3554 20986.66216
543.5609 21364.61480
543.7663 21370.55391
543.9718 21240.09830
544.1772 21408.97380
544.3826 21451.16196
544.5880 22045.25721
544.7934 21868.59943
544.9987 21956.12961
545.2041 22325.39886
545.4094 22288.67878
545.6147 22282.76015
545.8200 22591.67575
546.0253 22539.12488
546.2306 22822.01080
546.4358 22658.62385
546.6411 22997.58316
546.8463 22869.93327
547.0515 23131.52032
547.2567 23296.93475
547.4619 23361.60960
547.6670 23468.47261
547.8722 23586.18986
548.0773 23911.69401
548.2824 23918.26799
548.4876 24073.36066
548.6926 24120.79162
548.8977 24257.22730
549.1028 24355.83699
549.3078 24594.71207
549.5129 24560.28571
549.7179 24707.08411
549.9229 24879.46164
550.1279 24743.59940
550.3328 25110.84115
550.5378 24816.24085
550.7427 25144.71456
550.9476 25350.76069
551.1526 24809.54399
551.3575 25406.77264
551.5623 25504.25595
551.7672 25393.89091
551.9720 25491.51758
552.1769 25642.67816
552.3817 25828.57228
552.5865 25707.72165
552.7913 25895.23366
552.9961 25796.76733
553.2008 26004.30848
553.4056 26304.88885
553.6103 26225.98062
553.8150 26486.74848
554.0197 26554.96632
554.2244 26427.76698
554.4291 26485.51970
554.6337 26961.93867
554.8384 26731.29643
555.0430 26954.54550
555.2476 26717.22688
555.4522 26718.06655
555.6568 27113.65219
555.8613 27249.22772
556.0659 27348.08317
556.2704 27081.08949
556.4750 27378.72079
556.6795 27602.62521
556.8839 27304.56384
557.0884 27783.23558
557.2929 27705.04413
557.4973 27503.85168
557.7018 27661.56575
557.9062 27812.13241
558.1106 27851.96541
558.3150 27677.76518
558.5193 28117.42312
558.7237 28173.12787
558.9280 27926.06092
559.1323 28163.70721
559.3367 27962.76052
559.5410 28239.48205
559.7452 28003.71989
559.9495 28347.65576
560.1537 28313.37277
560.3580 28249.63998
560.5622 28494.20841
560.7664 28701.29901
560.9706 28664.16933
561.1748 28812.07364
561.3789 28765.27755
561.5831 28771.64673
561.7872 28772.75264
561.9913 29015.29358
562.1954 28948.12020
562.3995 29097.17137
562.6036 29115.82836
562.8076 28906.48500
563.0117 29186.40136
563.2157 29096.70033
563.4197 29315.77155
563.6237 29492.83893
563.8277 29196.76409
564.0316 29047.11901
564.2356 29441.04580
564.4395 29423.84286
564.6434 29612.07167
564.8473 29780.72190
565.0512 29779.80031
565.2551 29745.12820
565.4590 29824.32315
565.6628 30036.49271
565.8666 30192.19978
566.0705 29981.83243
566.2743 30016.64790
566.4780 30056.05081
566.6818 29956.92913
566.8856 30490.60930
567.0893 30089.69894
567.2930 30260.54049
567.4967 29971.14203
567.7004 30199.30623
567.9041 30353.10868
568.1078 30389.07101
568.3114 30560.95703
568.5151 30529.29543
568.7187 30199.28575
568.9223 30407.87137
569.1259 30586.37232
569.3295 30938.02904
569.5330 30873.08795
569.7366 30863.23722
569.9401 30970.03879
570.1436 31050.81068
570.3471 31120.31873
570.5506 31125.33626
570.7541 31070.71693
570.9575 31007.33230
571.1609 30720.39140
571.3644 31319.50417
571.5678 31201.70501
571.7712 31611.38068
571.9746 31481.90810
572.1779 31273.42488
572.3813 31123.82076
572.5846 31408.67273
572.7879 31303.63242
572.9912 31965.63832
573.1945 31773.17021
573.3978 31388.74600
573.6010 31711.97691
573.8043 32217.64087
574.0075 31383.91279
574.2107 31561.71744
574.4139 31542.32318
574.6171 31665.42658
574.8203 31523.29755
575.0234 31914.19334
575.2266 31392.22755
575.4297 31551.62095
575.6328 31728.79073
575.8359 32031.78771
576.0390 31391.30596
576.2420 31517.05124
576.4451 31306.54053
576.6481 31620.14599
576.8512 32107.31679
577.0542 31420.98103
577.2571 31833.42145
577.4601 31844.07089
577.6631 31724.65383
577.8660 31573.14510
578.0689 31472.44648
578.2719 31665.73377
578.4748 31492.14794
578.6776 31420.20280
578.8805 31498.33281
579.0834 31017.26495
579.2862 31450.43082
579.4890 31849.43657
579.6918 31647.05630
579.8946 31339.61523
580.0974 31787.89511
580.3002 31426.55150
580.5029 31327.75749
580.7057 31700.50828
580.9084 31248.58302
581.1111 31843.92753
581.3138 31599.19527
581.5164 31347.95046
581.7191 31207.99228
581.9217 31314.63001
582.1244 31364.80524
582.3270 31412.68675
582.5296 31359.50100
582.7322 31621.08805
582.9347 31496.26436
583.1373 31203.17955
583.3398 31443.54964
583.5424 31200.88583
583.7449 31139.61060
583.9474 30939.52405
584.1498 30949.62054
584.3523 31350.10083
584.5548 31006.57455
584.7572 31198.10059
584.9596 31388.02921
585.1620 31940.14110
585.3644 31022.40535
585.5668 31109.34162
585.7691 31451.33192
585.9715 31283.41897
586.1738 31524.75160
586.3761 31504.96823
586.5784 31686.25442
586.7807 31594.93549
586.9830 31602.20578
587.1852 31522.60124
587.3875 31282.31306
587.5897 31798.07351
587.7919 31571.13810
587.9941 31200.78343
588.1963 31326.99974
588.3984 31746.09607
588.6006 31173.07441
588.8027 31765.59273
589.0048 31413.28066
589.2069 31540.93056
589.4090 31578.96134
589.6111 31804.21742
589.8131 31677.03856
590.0152 31893.34502
590.2172 31776.26265
590.4192 32133.03928
590.6212 31824.84046
590.8232 31595.18125
591.0252 31952.92043
591.2271 32104.71587
591.4291 32054.90927
591.6310 31894.55332
591.8329 31866.08655
592.0348 32230.01060
592.2367 32231.60802
592.4385 32558.15663
592.6404 32681.21908
592.8422 32744.48083
593.0440 32859.22852
593.2458 33097.44825
593.4476 33201.71033
593.6494 33204.45461
593.8512 33394.89523
594.0529 33722.24255
594.2546 33611.52936
594.4563 33525.04364
594.6580 33282.44126
594.8597 33230.42286
595.0614 33315.67980
595.2630 33638.43967
595.4647 33585.72495
595.6663 33302.06080
595.8679 33613.10630
596.0695 34098.18817
596.2711 33859.12878
596.4727 33956.14106
596.6742 34247.68989
596.8757 34379.72244
597.0773 34303.04649
597.2788 33952.10656
597.4802 34297.41458
597.6817 34781.34959
597.8832 34500.75739
598.0846 34841.58035
598.2860 34780.87856
598.4875 34461.29303
598.6889 35018.91397
598.8902 35122.66406
599.0916 35139.39597
599.2930 34824.58221
599.4943 35344.04948
599.6956 35329.14027
599.8969 35088.85210
600.0982 34742.97066
600.2995 34906.66480
600.5008 35669.88131
600.7020 35022.19072
600.9032 35532.87220
601.1045 35353.75686
601.3057 35073.22610
601.5068 35723.76337
601.7080 35791.01866
601.9092 35513.76465
602.1103 36057.58228
602.3115 35953.11539
602.5126 36160.88182
602.7137 36080.72432
602.9147 36018.54799
603.1158 36254.16680
603.3169 36488.00387
603.5179 36391.15543
603.7189 36201.41112
603.9199 36397.27885
604.1209 36400.92424
604.3219 36360.55877
604.5229 36410.61113
604.7238 36663.63767
604.9247 36665.27604
605.1257 36818.46411
605.3266 37019.73847
605.5275 36649.15853
605.7283 36786.14716
605.9292 36924.93800
606.1300 36371.86356
606.3309 36597.14012
606.5317 36991.12835
606.7325 37124.14392
606.9332 37117.03747
607.1340 37365.02601
607.3348 37271.78199
607.5355 36753.97357
607.7362 37725.71426
607.9369 36946.48263
608.1376 37250.11448
608.3383 37004.82926
608.5390 37861.69939
608.7396 37434.26783
608.9402 38038.35717
609.1409 38020.78560
609.3415 37633.57615
609.5421 37566.83285
609.7426 37905.83311
609.9432 37430.64293
610.1437 37273.85044
610.3443 38125.29345
610.5448 37859.79478
610.7453 38150.97497
610.9457 37922.89269
611.1462 38090.12982
611.3467 37974.56295
611.5471 38329.08682
611.7475 37815.35385
611.9479 38619.81646
612.1483 38051.01362
612.3487 38636.30261
612.5491 38428.53618
612.7494 39031.29434
612.9497 38346.04400
613.1501 38814.18917
613.3504 38604.66149
613.5506 39231.81096
613.7509 38933.50383
613.9512 38730.79589
614.1514 38930.90291
614.3516 39386.65788
614.5519 39161.09460
614.7521 39320.81568
614.9522 38968.64698
615.1524 38978.39531
615.3526 39431.42648
615.5527 40056.44606
615.7528 39603.88592
615.9529 39662.33495
616.1530 40153.27402
616.3531 40074.30435
616.5532 39987.24519
616.7532 39518.05555
616.9532 39883.67941
617.1533 39678.14527
617.3533 40022.67505
617.5532 39735.48840
617.7532 39962.17806
617.9532 39165.60013
618.1531 40177.27621
618.3530 39587.78889
618.5530 39890.21243
618.7528 40028.42985
618.9527 40084.38035
619.1526 39734.07530
619.3524 39768.44021
619.5523 40049.95400
619.7521 40108.79214
619.9519 40197.71494
620.1517 40164.47641
620.3515 40517.17759
620.5512 40825.04873
620.7510 40554.36870
620.9507 40257.65899
621.1504 40301.93607
621.3501 40380.92623
621.5498 40653.61327
621.7495 40721.74919
621.9492 40345.53733
622.1488 40190.19890
622.3484 40210.02323
622.5480 40169.18674
622.7476 40929.96617
622.9472 40217.39592
623.1468 40429.07397
623.3463 41538.47912
623.5459 41223.78825
623.7454 40972.78920
623.9449 40994.14951
624.1444 40969.47149
624.3439 41357.97116
624.5433 41149.50842
624.7428 40921.11894
624.9422 41014.07625
625.1416 41141.13223
625.3410 41120.73446
625.5404 40995.41925
625.7398 41036.23527
625.9391 41262.35150
626.1385 40878.31640
626.3378 40902.99442
626.5371 41690.39745
626.7364 40998.65504
626.9357 41470.09745
627.1350 41370.25897
627.3342 41002.36186
627.5335 40763.58919
627.7327 40966.99344
627.9319 41035.60040
628.1311 41991.59221
628.3303 41262.26958
628.5294 41506.96088
628.7286 41610.42427
628.9277 41995.64719
629.1268 41664.01961
629.3259 42301.67516
629.5250 42219.16250
629.7241 42157.78487
629.9231 41387.95342
630.1222 42237.92189
630.3212 42112.97532
630.5202 41707.82566
630.7192 42258.34014
630.9182 41619.78348
631.1171 41862.93881
631.3161 41694.30907
631.5150 41537.08650
631.7140 41854.76742
631.9129 41984.46528
632.1118 42444.19330
632.3106 42259.17981
632.5095 42071.19675
632.7083 41998.51434
632.9072 42066.71170
633.1060 42177.62969
633.3048 42208.34922
633.5036 41701.08784
633.7023 42031.77336
633.9011 42516.91667
634.0998 42381.21826
634.2986 42520.17294
634.4973 42221.00567
634.6960 42420.43687
634.8947 42245.80657
635.0933 42554.35354
635.2920 42193.31713
635.4906 41817.12575
635.6892 42566.21128
635.8878 42653.27043
636.0864 42681.18425
636.2850 42396.02508
636.4836 42359.30500
636.6821 42421.80900
636.8806 42632.85218
637.0792 42567.97253
637.2777 42539.97680
637.4761 42574.52603
637.6746 42299.70911
637.8731 42706.49714
638.0715 42227.92780
638.2699 42900.50122
638.4683 42560.29265
638.6667 41820.77114
638.8651 42696.89217
639.0635 42885.94016
639.2618 42951.61852
639.4602 42799.78212
639.6585 42734.55431
639.8568 42885.94016
640.0551 42921.49290
640.2534 42799.80260
640.4516 42568.52549
640.6499 42780.67457
640.8481 43543.15381
641.0463 43282.20164
641.2445 43532.64773
641.4427 43316.54607
641.6409 43104.27411
641.8390 43355.76467
642.0372 43699.74150
642.2353 43521.01527
642.4334 42929.95101
642.6315 43191.47662
642.8296 43185.51703
643.0277 43000.99505
643.2257 43707.60570
643.4237 43747.80733
643.6218 43626.15799
643.8198 43344.43941
644.0178 43482.14483
644.2157 43433.34173
644.4137 43301.06343
644.6116 44056.90725
644.8096 44357.11899
645.0075 43223.54781
645.2054 43838.22515
645.4033 43752.96821
645.6011 43655.30058
645.7990 43637.97477
645.9968 43885.53323
646.1947 43799.37518
646.3925 43998.43775
646.5903 43796.93810
646.7881 44032.98698
646.9858 43790.63036
647.1836 43643.27901
647.3813 43379.99214
647.5790 43849.91905
647.7767 44475.90118
647.9744 43590.29805
648.1721 43592.46890
648.3698 44317.06073
648.5674 43502.70643
648.7650 43958.15420
648.9627 43613.99305
649.1603 44431.41930
649.3578 44123.07712
649.5554 44189.84091
649.7530 44643.36359
649.9505 43588.04529
650.1480 44180.09257
650.3455 44532.56848
650.5430 43917.05147
650.7405 44113.75887
650.9380 43870.54210
651.1354 44247.55267
651.3329 43922.23283
651.5303 44318.86294
651.7277 44349.27527
651.9251 44452.30858
652.1225 44257.07572
652.3198 44165.96159
652.5172 44335.73820
652.7145 44613.60660
652.9118 44432.09513
653.1091 44459.29215
653.3064 44750.22660
653.5037 44365.98670
653.7009 44092.33711
653.8982 44447.06578
654.0954 44884.02039
654.2926 45050.02874
654.4898 44904.02905
654.6870 44876.72962
654.8841 45460.27784
655.0813 44928.70707
655.2784 44924.28346
655.4755 45374.28363
655.6726 45572.26077
655.8697 44902.84123
656.0668 45296.19458
656.2639 44952.91406
656.4609 45013.71825
656.6579 45089.53406
656.8550 45272.19239
657.0520 45148.61796
657.2490 44549.21846
657.4459 45202.23378
657.6429 45355.31944
657.8398 45125.04584
658.0367 45517.08849
658.2337 45333.46762
658.4305 45538.53073
658.6274 45571.58494
658.8243 45495.54386
659.0211 45776.56613
659.2180 45731.67466
659.4148 45874.19280
659.6116 46110.87655
659.8084 46040.79506
660.0052 46453.68604
660.2019 46152.26600
660.3987 45925.86306
660.5954 45973.51929
660.7921 46078.43673
660.9888 45660.03671
661.1855 46047.08233
661.3822 46280.87844
661.5788 45696.73631
661.7755 45921.17321
661.9721 45573.20284
662.1687 46081.57012
662.3653 45991.50045
662.5619 46138.56509
662.7584 45671.68965
662.9550 45845.68508
663.1515 46203.03515
663.3480 45794.48586
663.5445 46425.34215
663.7410 45775.37831
663.9375 45899.15754
664.1340 46032.84894
664.3304 46338.54924
664.5268 46015.97368
664.7233 46470.72514
664.9197 46375.41268
665.1160 46367.13888
665.3124 46140.42874
665.5088 46242.06943
665.7051 46278.58471
665.9014 46282.57825
666.0977 46056.35962
666.2940 46010.15745
666.4903 46267.48472
666.6866 46364.92708
666.8828 46023.91980
667.0791 46116.05791
667.2753 46400.76653
667.4715 46196.46117
667.6677 46694.62957
667.8639 46989.65994
668.0600 46199.86080
668.2562 46468.90245
668.4523 46355.03539
668.6484 46485.67531
668.8445 46037.64119
669.0406 47096.07240
669.2367 46964.42897
669.4327 47063.36634
669.6287 46843.18922
669.8248 46620.43166
670.0208 46854.65784
670.2168 46793.58742
670.4128 46894.10172
670.6087 46788.61085
670.8047 46730.46902
671.0006 47423.70644
671.1965 46300.98949
671.3924 47042.23130
671.5883 46563.17045
671.7842 46665.69177
671.9801 46121.50551
672.1759 46572.12008
672.3717 46326.22047
672.5675 47082.45341
672.7633 46883.39085
672.9591 47074.83496
673.1549 47550.63954
673.3506 46972.19077
673.5464 46507.58858
673.7421 47069.16209
673.9378 46949.41736
674.1335 46689.34581
674.3292 47018.57726
674.5249 46530.99686
674.7205 45734.70565
674.9161 46193.28682
675.1118 46146.94128
675.3074 46169.05935
675.5030 46203.38330
675.6985 46703.64063
675.8941 46562.78134
676.0896 46640.31743
676.2852 46774.33651
676.4807 46586.70161
676.6762 46828.97632
676.8717 47175.36975
677.0671 46989.72138
677.2626 47497.20804
677.4580 47009.75052
677.6534 47102.25727
677.8489 46635.34087
678.0442 46758.95626
678.2396 46056.44154
678.4350 46399.41487
678.6303 46549.55146
678.8257 46294.66127
679.0210 46659.11779
679.2163 46324.68449
679.4116 46520.98230
679.6069 46326.81438
679.8021 45880.58247
679.9974 45830.55059
680.1926 46298.59337
680.3878 46140.49018
680.5830 46073.23489
680.7782 46245.05947
680.9734 46028.63013
681.1685 45977.20563
681.3636 45931.69977
681.5588 46031.76352
681.7539 45814.94507
681.9490 45941.67338
682.1441 45889.51161
682.3391 45525.64900
682.5342 46248.70485
682.7292 46331.93430
682.9242 46430.91263
683.1192 46151.63113
683.3142 46683.98013
683.5092 46605.97300
683.7041 46735.28175
683.8991 46639.88736
684.0940 46423.29419
684.2889 45896.14703
684.4838 46353.23317
684.6787 45937.24976
684.8736 45131.08734
685.0684 45971.34844
685.2633 45571.19583
685.4581 45775.43975
685.6529 46084.66255
685.8477 46403.98184
686.0425 46350.77561
686.2372 46009.74786
686.4320 45830.57107
686.6267 45909.33595
686.8214 45672.63172
687.0161 45594.41979
687.2108 45762.72187
687.4055 45546.98884
687.6002 45812.32367
687.7948 45800.73217
687.9894 46196.33829
688.1841 45768.47666
688.3787 45869.60535
688.5732 45549.07777
688.7678 45782.32093
688.9624 45531.89531
689.1569 45579.79730
689.3514 45304.09974
689.5459 44914.08458
689.7404 45092.17594
689.9349 45164.61259
690.1294 45275.08003
690.3238 45300.00381
690.5182 45439.42952
690.7127 45485.40642
690.9071 45423.86496
691.1015 45058.13870
691.2958 45283.76341
691.4902 45513.13591
691.6845 46366.68833
691.8789 45596.20153
692.0732 45568.65635
692.2675 45362.67165
692.4618 45568.94306
692.6560 45428.04281
692.8503 45956.27539
693.0445 45892.78836
693.2387 45156.83031
693.4329 45649.61255
693.6271 45502.38408
693.8213 45567.18181
694.0155 45776.27942
694.2096 45508.46655
694.4038 45148.98659
694.5979 45206.53451
694.7920 45209.50407
694.9861 45161.27440
695.1801 45107.90434
695.3742 44952.50447
695.5682 44997.74410
695.7623 44837.44958
695.9563 44613.95475
696.1503 45084.63941
696.3443 44327.99688
696.5382 44884.55287
696.7322 44814.90145
696.9261 45207.33322
697.1201 44624.54275
697.3140 44955.92458
697.5079 45141.22479
697.7017 44408.11342
697.8956 44505.20761
698.0894 44188.98076
698.2833 44701.25966
698.4771 44811.07175
698.6709 45158.96020
698.8647 44400.37209
699.0585 45068.56286
699.2522 44124.01919
699.4460 44590.23928
699.6397 44584.48448
699.8334 44389.94793
700.0271 44218.32815
700.2208 44380.71159
700.4144 44736.64856
700.6081 44599.45514
700.8017 44366.82637
700.9954 44890.63533
701.1890 44567.65018
701.3826 44027.47794
701.5761 44136.49132
701.7697 44270.18272
701.9632 43970.89257
702.1568 44189.94330
702.3503 44018.99935
702.5438 43724.62433
702.7373 43195.36776
702.9308 44057.89028
703.1242 44085.29210
703.3177 43830.50431
703.5111 44173.43668
703.7045 44356.99612
703.8979 44439.89789
704.0913 44224.63590
704.2847 44445.26357
704.4780 44659.37870
704.6713 43662.03840
704.8647 43964.56434
705.0580 43773.95989
705.2513 43188.69138
705.4445 43735.39664
705.6378 43742.56453
705.8311 42901.13609
706.0243 43012.25887
706.2175 43549.11340
706.4107 43391.31741
706.6039 43350.07132
706.7971 43295.02192
706.9902 43548.64237
707.1834 43405.30504
707.3765 42947.33827
707.5696 42969.94784
707.7627 43206.38583
707.9558 43260.84132
708.1489 42698.61246
708.3419 42313.94249
708.5349 42490.90747
708.7280 42453.65492
708.9210 43183.89914
709.1140 43021.78193
709.3069 42665.51729
709.4999 42534.46777
709.6929 42866.99645
709.8858 42512.20635
710.0787 42654.21250
710.2716 41934.82252
710.4645 42516.42516
710.6574 42611.36899
710.8502 42790.09523
711.0431 42290.59565
711.2359 42092.02460
711.4287 42029.82779
711.6215 42263.89013
711.8143 42251.33609
712.0071 42237.30750
712.1998 42056.04179
712.3925 42312.50891
712.5853 42532.23548
712.7780 42498.32112
712.9707 42200.15735
713.1633 42249.41100
713.3560 42256.72224
713.5487 42033.71893
713.7413 42226.86286
713.9339 42112.93436
714.1265 41826.36209
714.3191 41898.51203
714.5117 41407.04049
714.7042 41804.65362
714.8968 41941.15074
715.0893 42536.47477
715.2818 42430.20568
715.4743 42396.10700
715.6668 41973.09905
715.8592 42373.94798
716.0517 42001.11526
716.2441 42098.06610
716.4366 41778.48058
716.6290 41901.66590
716.8214 42004.26914
717.0137 42099.95024
717.2061 41998.33003
717.3984 41896.34118
717.5908 41579.15178
717.7831 41409.80525
717.9754 42007.13629
718.1677 40966.82961
718.3600 41668.58658
718.5522 41291.26882
718.7445 41240.19247
718.9367 40927.24237
719.1289 41128.23002
719.3211 40898.79608
719.5133 41000.15006
719.7054 40904.24368
719.8976 41220.96205
720.0897 41161.20232
720.2818 41080.86051
720.4740 41169.27132
720.6660 41196.89842
720.8581 41163.27077
721.0502 40852.79871
721.2422 40645.74907
721.4343 40884.82894
721.6263 41008.81297
721.8183 40825.31497
722.0103 41273.65628
722.2022 41062.85886
722.3942 41287.48007
722.5861 40881.73650
722.7781 41360.98167
722.9700 40956.09825
723.1619 40726.58239
723.3538 40552.58697
723.5456 40783.08585
723.7375 40513.71652
723.9293 40728.73276
724.1211 40348.32256
724.3129 40399.15315
724.5047 39937.37715
724.6965 39959.70001
724.8883 40170.90703
725.0800 40032.05475
725.2718 40366.28325
725.4635 39991.66881
725.6552 39905.14213
725.8469 40100.90746
726.0385 40396.44983
726.2302 40097.61023
726.4218 39367.98040
726.6135 39445.10691
726.8051 39336.60552
726.9967 39718.92033
727.1882 39981.24465
727.3798 40266.11710
727.5714 39974.60923
727.7629 40334.53973
727.9544 40343.07976
728.1459 39731.55630
728.3374 39479.14415
728.5289 40284.50786
728.7204 39777.86087
728.9118 40257.31083
729.1032 40483.77522
729.2946 40228.55735
729.4860 39493.37753
729.6774 39818.59497
729.8688 39790.57875
730.0602 39562.04592
730.2515 39775.42379
730.4428 40022.49074
730.6341 39738.76515
730.8254 39552.72766
731.0167 39976.12472
731.2080 39943.82826
731.3992 39781.38337
731.5905 39654.34787
731.7817 39696.45411
731.9729 39079.46257
732.1641 39419.01578
732.3553 38887.81365
732.5464 39276.76387
732.7376 39218.00765
732.9287 39269.06351
733.1198 39211.72039
733.3109 39323.02749
733.5020 39092.87676
733.6931 39645.45969
733.8841 39496.18325
734.0752 39783.96382
734.2662 39276.23140
734.4572 39171.21157
734.6482 38681.03025
734.8392 38685.88393
735.0302 38597.73936
735.2211 38352.43366
735.4120 38322.00084
735.6030 38838.51904
735.7939 38754.88000
735.9848 38761.35158
736.1756 38312.78498
736.3665 38549.81689
736.5574 38105.71486
736.7482 38161.46057
736.9390 37974.95206
737.1298 38318.62170
737.3206 38442.74908
737.5114 38657.45812
737.7021 38115.99567
737.8929 38145.19970
738.0836 38270.78115
738.2743 38491.92081
738.4650 38471.97360
738.6557 38189.12863
738.8463 37916.46207
739.0370 37892.52132
739.2276 37621.00162
739.4182 37654.38351
739.6088 37956.54082
739.7994 37659.85159
739.9900 37913.69731
740.1806 37821.41584
740.3711 37910.42056
740.5617 38192.01627
740.7522 37998.91329
740.9427 37946.01426
741.1332 37971.88011
741.3236 37540.47549
741.5141 37745.70244
741.7045 38039.44260
741.8949 38069.22006
742.0854 37862.94865
742.2758 37940.46427
742.4661 37411.02338
742.6565 37022.27796
742.8469 37296.41905
743.0372 37643.65215
743.2275 37235.92206
743.4178 37515.49027
743.6081 37603.10237
743.7984 37536.74819
743.9886 37587.88597
744.1789 37364.32970
744.3691 37114.14983
744.5593 37137.53764
744.7495 36817.48108
744.9397 37041.28311
745.1299 36774.49422
745.3200 36308.49941
745.5102 36653.33639
745.7003 36698.37122
745.8904 36883.32328
746.0805 36942.22286
746.2706 36841.89287
746.4607 36836.99822
746.6507 36795.89549
746.8408 36401.16999
747.0308 36828.39675
747.2208 36425.76610
747.4108 36577.33627
747.6007 36756.57449
747.7907 37131.92620
747.9806 36834.74546
748.1706 36846.33696
748.3605 36501.11087
748.5504 36449.23582
748.7403 36919.18321
748.9302 36360.23110
749.1200 36432.74967
749.3098 36337.02761
749.4997 36085.90568
749.6895 36258.32417
749.8793 36144.94862
750.0691 36616.47295
750.2588 36225.47475
750.4486 36097.88630
750.6383 36194.65283
750.8280 35614.01273
751.0177 35560.78602
751.2074 35649.79074
751.3971 35815.08230
751.5868 35808.01680
751.7764 35632.95644
751.9660 35347.10096
752.1557 35454.00493
752.3453 35598.87824
752.5348 35859.60514
752.7244 36146.75084
752.9140 36134.95454
753.1035 35848.64850
753.2930 35955.14288
753.4825 35569.67420
753.6720 35854.64905
753.8615 35853.85035
754.0510 35436.53575
754.2404 35449.80659
754.4299 35486.26043
754.6193 35401.06493
754.8087 35304.89232
754.9981 35332.72422
755.1875 35091.67830
755.3768 34897.98141
755.5662 35055.69548
755.7555 35107.26334
755.9448 35153.75223
756.1341 35081.62277
756.3234 34631.76595
756.5127 34658.06187
756.7019 34953.62472
756.8912 35044.71837
757.0804 34881.67958
757.2696 34981.08798
757.4588 34644.34048
757.6480 34453.28548
757.8371 34133.94571
758.0263 34178.55047
758.2154 34298.97103
758.4045 34005.06704
758.5936 33824.33379
758.7827 34236.75374
758.9718 34487.42512
759.1609 34088.74704
759.3499 34080.75996
759.5389 33575.13696
759.7280 33947.78535
759.9170 34058.39614
760.1059 33999.45560
760.2949 33947.08904
760.4839 34323.48522
760.6728 34098.31105
760.8617 33980.65525
761.0506 33615.33858
761.2395 33354.30449
761.4284 33613.33157
761.6173 33537.51577
761.8061 33526.02667
761.9950 33517.36376
762.1838 33233.35145
762.3726 33691.13391
762.5614 33275.86728
762.7502 33674.66824
762.9389 32978.93229
763.1277 33109.40838
763.3164 33483.69515
763.5051 33352.91187
763.6938 33635.59299
763.8825 33324.83422
764.0712 33947.00712
764.2598 33477.44885
764.4484 33716.59016
764.6371 33675.71270
764.8257 33470.36287
765.0143 33642.63801
765.2029 33254.24073
765.3914 33343.26593
765.5800 33581.60854
765.7685 33077.82870
765.9570 33145.32975
766.1455 32687.54730
766.3340 32420.16450
766.5225 32674.87037
766.7110 32627.37798
766.8994 32359.42175
767.0878 32070.82199
767.2762 32383.71066
767.4646 32306.03120
767.6530 32393.45899
767.8414 32471.75283
768.0298 32155.64886
768.2181 32043.58401
768.4064 32077.21165
768.5947 32137.91345
768.7830 32015.69067
768.9713 31983.88572
769.1596 31698.86991
769.3478 31618.42569
769.5360 31796.06650
769.7243 31733.11194
769.9125 31488.46160
770.1007 31211.82198
770.2888 31270.35293
770.4770 31410.78214
770.6651 31367.67240
770.8533 31139.16005
771.0414 30927.07240
771.2295 31209.05722
771.4176 31424.72881
771.6056 31482.56345
771.7937 31195.88878
771.9817 30900.08017
772.1698 31473.32711
772.3578 31436.05408
772.5458 31066.17044
772.7337 30596.36641
772.9217 30966.16813
773.1096 30758.13546
773.2976 31046.50994
773.4855 31309.67392
773.6734 30622.58041
773.8613 30683.95803
774.0492 30804.82915
774.2370 30662.61820
774.4249 30746.11388
774.6127 30966.20909
774.8005 30786.60223
774.9883 30751.33620
775.1761 30906.22408
775.3639 30391.89721
775.5516 30502.85616
775.7394 30216.26341
775.9271 30340.86183
776.1148 30331.44117
776.3025 29656.96314
776.4902 29780.90621
776.6778 29738.71806
776.8655 30099.48823
777.0531 30281.49121
777.2407 30246.10231
777.4283 29918.63211
777.6159 30016.15638
777.8035 29729.42028
777.9911 29564.41544
778.1786 29837.28679
778.3661 29333.38408
778.5536 29673.65409
778.7411 29736.71105
778.9286 30002.57835
779.1161 29746.72561
779.3036 29305.98226
779.4910 29379.95489
779.6784 29470.76182
779.8658 29702.98100
780.0532 29199.97940
780.2406 29485.63008
780.4280 29218.71831
780.6153 29386.48791
780.8026 29377.00582
780.9900 29547.58113
781.1773 28984.81980
781.3646 29353.55657
781.5518 29173.17149
781.7391 29045.72639
781.9263 29136.38997
782.1136 29043.10499
782.3008 28734.78330
782.4880 28839.22970
782.6752 28693.37337
782.8623 28653.74517
783.0495 29005.42237
783.2366 28424.02452
783.4237 28580.40741
783.6108 28863.08854
783.7979 28615.16144
783.9850 28696.58868
784.1721 28893.02984
784.3591 28392.62916
784.5462 28288.12131
784.7332 28434.08004
784.9202 28560.27588
785.1072 28141.81442
785.2941 28062.29180
785.4811 27954.17953
785.6681 28122.44064
785.8550 28155.37198
786.0419 27910.88547
786.2288 27777.13263
786.4157 27663.57276
786.6025 27685.83418
786.7894 27858.94898
786.9762 27734.47344
787.1631 27189.22224
787.3499 27536.63966
787.5367 27665.12922
787.7234 27219.10210
787.9102 27617.86210
788.0970 27695.70539
788.2837 27740.02343
788.4704 27183.89752
788.6571 26860.83045
788.8438 26852.96625
789.0305 26786.79638
789.2171 26778.33827
789.4038 26665.94574
789.5904 26892.61493
789.7770 26901.72839
789.9636 26884.27969
790.1502 26944.51045
790.3368 26926.95936
790.5233 27092.23044
790.7099 26782.35229
790.8964 26308.10416
791.0829 26250.53576
791.2694 26161.20337
791.4559 26258.97339
791.6423 26226.86124
791.8288 26315.08774
792.0152 26545.17703
792.2016 26487.54719
792.3880 26738.75103
792.5744 26289.26285
792.7608 25820.52376
792.9471 25873.62759
793.1335 26434.58671
793.3198 26098.18737
793.5061 26129.02978
793.6924 25724.71979
793.8787 25581.09574
794.0650 25610.99608
794.2512 25984.01311
794.4375 26024.62433
794.6237 26110.80285
794.8099 26090.73276
794.9961 25595.98447
795.1823 25579.00681
795.3684 25647.75712
795.5546 25261.10062
795.7407 25289.64930
795.9268 25185.08002
796.1129 25481.93309
796.2990 25582.67267
796.4851 25911.63789
796.6712 25653.10232
796.8572 25604.11491
797.0432 25291.43104
797.2292 25567.33339
797.4152 25557.15498
797.6012 24973.83204
797.7872 24777.20656
797.9731 24850.09377
798.1591 24642.71646
798.3450 24554.53092
798.5309 24822.83531
798.7168 24745.50401
798.9027 24718.32746
799.0885 24923.18578
799.2744 24772.47576
799.4602 25046.90357
799.6460 24990.56395
799.8318 25442.14106
800.0176 24898.58967
800.2034 25018.31393
800.3892 24477.13818
800.5749 24379.38863
800.7606 24295.66767
800.9463 24545.21266
801.1320 24404.55817
801.3177 24453.77086
801.5034 24393.25338
801.6890 24785.50084
801.8747 24302.36453
802.0603 24060.11031
802.2459 23977.29045
802.4315 24072.99203
802.6171 23778.82180
802.8026 24103.81396
802.9882 23969.13953
803.1737 23752.28012
803.3592 24044.42287
803.5447 23912.53368
803.7302 24191.50798
803.9157 24062.28115
804.1012 24161.58716
804.2866 23583.85517
804.4720 23710.17389
804.6574 23625.40846
804.8428 23469.04605
805.0282 23464.90915
805.2136 23262.63127
805.3989 23577.13784
805.5843 23398.45256
805.7696 23345.84025
805.9549 23226.38223
806.1402 23016.50639
806.3255 22881.64765
806.5107 23142.90702
806.6960 23348.58452
806.8812 22872.86186
807.0664 23031.76376
807.2516 22734.19390
807.4368 22585.85952
807.6220 22446.72053
807.8072 22553.50162
807.9923 22693.52124
808.1774 22599.90859
808.3625 22843.20727
808.5476 22854.32775
808.7327 22940.44483
808.9178 22562.36932
809.1028 22527.36953
809.2879 22425.21685
809.4729 22400.33403
809.6579 22242.29228
809.8429 22346.28814
810.0279 22255.09209
810.2128 22038.99043
810.3978 22203.76999
810.5827 22393.61670
810.7676 22513.40239
810.9525 22616.08754
811.1374 22326.83243
811.3223 22308.85127
811.5072 22068.72693
811.6920 22136.04367
811.8768 22199.51022
812.0616 22071.43025
812.2464 22147.06174
812.4312 21888.34185
812.6160 22032.00685
812.8007 22191.78938
812.9855 22211.67515
813.1702 21959.54972
813.3549 21970.48587
813.5396 21603.96090
813.7243 21715.49328
813.9089 21687.64091
814.0936 21756.90321
814.2782 21778.95983
814.4628 21621.30720
814.6474 21679.48999
814.8320 21653.89038
815.0166 21340.57164
815.2012 21506.10896
815.3857 21332.31833
815.5702 21298.42445
815.7547 21339.67054
815.9392 21485.64975
816.1237 21224.24702
816.3082 21046.21710
816.4926 21193.40461
816.6771 21331.49914
816.8615 21022.58354
817.0459 21168.58323
817.2303 21054.47041
817.4147 21178.74115
817.5990 21226.21307
817.7834 20856.34991
817.9677 20924.13768
818.1520 21098.44030
818.3363 21038.37337
818.5206 20790.97875
818.7049 20680.47036
818.8891 20780.30883
819.0734 20852.17206
819.2576 20977.18007
819.4418 20603.34385
819.6260 20498.63121
819.8102 20576.08539
819.9944 20561.54481
820.1785 20330.08338
820.3627 20498.54929
820.5468 20509.44449
820.7309 20270.03694
820.9150 20068.57825
821.0991 19894.11180
821.2831 20252.28105
821.4672 20112.50718
821.6512 19992.31190
821.8352 19984.65249
822.0192 20326.47896
822.2032 20069.43840
822.3872 20130.93890
822.5711 19894.19371
822.7551 19807.68751
822.9390 19870.13008
823.1229 19958.80713
823.3068 19930.70900
823.4907 19693.00126
823.6745 19667.56549
823.8584 19587.96095
824.0422 19708.93446
824.2261 19788.06797
824.4099 19826.28307
824.5937 19903.61437
824.7774 19939.65862
824.9612 19829.80558
825.1449 19512.20658
825.3287 19566.47775
825.5124 19441.69502
825.6961 19714.95549
825.8798 19638.52530
826.0634 19686.75496
826.2471 19548.04604
826.4307 19799.57756
826.6144 19657.75572
826.7980 19744.91727
826.9816 19531.62133
827.1652 19707.72616
827.3487 19589.53788
827.5323 19257.19351
827.7158 19087.31451
827.8993 19389.32846
828.0828 19178.59247
828.2663 18900.74455
828.4498 19104.35361
828.6333 19268.12967
828.8167 18975.45445
829.0001 19099.68424
829.1836 19222.48044
829.3670 19138.41133
829.5504 19400.77660
829.7337 19229.30018
829.9171 19160.18123
830.1004 19182.27882
830.2837 19116.55950
830.4671 18940.00411
830.6504 18800.63984
830.8336 18939.96315
831.0169 18733.38455
831.2002 19089.99735
831.3834 18985.26422
831.5666 18704.42627
831.7498 18765.70149
831.9330 19065.74940
832.1162 18981.04541
832.2993 18877.52059
832.4825 18961.73306
832.6656 18778.17362
832.8487 18346.89188
833.0318 18550.31662
833.2149 18416.42042
833.3980 18384.59499
833.5811 18577.34981
833.7641 18457.44124
833.9471 18328.21441
834.1301 18094.37734
834.3131 17953.12893
834.4961 18166.44536
834.6791 18204.70141
834.8620 18568.66642
835.0450 18413.47135
835.2279 18543.64024
835.4108 18493.21925
835.5937 18513.43270
835.7766 18268.88475
835.9594 18235.93294
836.1423 18307.38657
836.3251 18594.24555
836.5079 18491.47848
836.6907 18046.45487
836.8735 17999.16727
837.0563 17985.81451
837.2390 18103.94135
837.4218 17997.24218
837.6045 18238.65674
837.7872 18299.68620
837.9699 18124.97399
838.1526 17915.89686
838.3352 17874.46645
838.5179 17801.82500
838.7005 17905.63654
838.8831 18013.74881
839.0658 18018.04954
839.2483 18020.24087
839.4309 18062.16279
839.6135 18038.73403
839.7960 17590.74086
839.9786 17669.79246
840.1611 17518.26325
840.3436 17749.62228
840.5261 17528.11398
840.7085 17436.44690
840.8910 17325.05788
841.0734 17337.53001
841.2559 17258.15074
841.4383 17462.82473
841.6207 17652.87623
841.8030 17510.93152
841.9854 17438.04431
842.1678 17270.62287
842.3501 17349.75638
842.5324 17245.98580
842.7147 17422.25447
842.8970 17601.55414
843.0793 17555.33148
843.2615 17469.35775
843.4438 17530.94017
843.6260 17532.82431
843.8082 17432.24856
843.9904 17474.84631
844.1726 17289.50514
844.3548 17186.59471
844.5369 17078.72820
844.7191 17112.76544
844.9012 17004.87844
845.0833 17020.27917
845.2654 17317.60327
845.4475 17422.54119
845.6296 17125.01229
845.8116 17038.73137
845.9936 16985.83233
846.1757 17086.34664
846.3577 17042.11051
846.5397 17091.63040
846.7216 16937.84843
846.9036 16836.02342
847.0855 16615.41623
847.2675 16808.10960
847.4494 16752.65061
847.6313 16991.01369
847.8132 17080.69425
847.9950 16914.82926
848.1769 16899.34661
848.3587 17064.49481
848.5406 16807.51569
848.7224 16794.16294
848.9042 16689.08166
849.0860 16760.76057
849.2677 16611.50460
849.4495 16463.60030
849.6312 16482.35970
849.8129 16518.36299
849.9946 16668.99109
850.1763 16550.43418
850.3580 16394.01032
850.5397 16330.72809
850.7213 16063.77536
850.9029 16108.64636
851.0845 16239.94163
851.2661 16228.30917
851.4477 16216.32855
851.6293 16246.84329
851.8109 16215.81656
851.9924 16381.80443
852.1739 16424.23834
852.3554 16303.63346
852.5369 16168.18081
852.7184 15991.05199
852.8999 15997.15494
853.0813 15978.29315
853.2628 16020.84994
853.4442 16102.50245
853.6256 16033.81358
853.8070 16201.29646
853.9883 16178.62545
854.1697 16023.30750
854.3510 15896.62015
854.5324 15915.56386
854.7137 15929.34669
854.8950 15826.02667
855.0763 15800.79570
855.2575 15872.51556
855.4388 15902.86646
855.6200 15897.15262
855.8013 15885.52016
855.9825 15807.73831
856.1637 15843.74160
856.3449 15716.86994
856.5260 15788.42596
856.7072 15759.83632
856.8883 15942.16698
857.0694 15858.20026
857.2505 15838.41688
857.4316 15815.52059
857.6127 15696.98416
857.7938 15808.98757
857.9748 15798.56341
858.1558 15623.35968
858.3368 15535.56326
858.5178 15518.93376
858.6988 15652.50228
858.8798 15568.67892
859.0607 15713.79798
859.2417 15580.47522
859.4226 15559.23778
859.6035 15569.78482
859.7844 15674.16979
859.9653 15582.56415
860.1462 15399.37334
860.3270 15319.03153
860.5078 15246.92255
860.6887 15313.52249
860.8695 15222.92035
861.0503 15317.72083
861.2310 15061.37658
861.4118 15025.86480
861.5925 14955.18940
861.7733 14926.02632
861.9540 14787.97275
862.1347 14635.58340
862.3154 14568.47146
862.4960 14700.89312
862.6767 14742.18017
862.8573 14671.27949
863.0380 14628.84558
863.2186 14708.61396
863.3992 14656.18596
863.5797 14677.79203
863.7603 14647.54353
863.9409 14549.03624
864.1214 14639.14686
864.3019 14720.47170
864.4824 14683.01435
864.6629 14582.82772
864.8434 14374.26258
865.0238 14524.01006
865.2043 14562.65523
865.3847 14234.20200
865.5651 14160.53656
865.7455 14363.69506
865.9259 14361.85189
866.1063 14249.99184
866.2866 14199.16125
866.4670 14233.13706
866.6473 14098.64695
866.8276 14096.88570
867.0079 14029.24129
867.1882 13982.50664
867.3684 13857.12999
867.5487 13821.96637
867.7289 13818.89442
867.9091 13873.49326
868.0893 13672.66945
868.2695 13485.91518
868.4497 13422.10047
868.6299 13545.36771
868.8100 13571.68411
868.9901 13494.70096
869.1703 13628.37188
869.3504 13640.20914
869.5304 13599.04497
869.7105 13672.42369
869.8906 13640.65970
870.0706 13522.14375
870.2506 13668.36871
870.4306 13679.89878
870.6106 13633.51229
870.7906 13722.10741
870.9706 13564.84389
871.1505 13411.81967
871.3305 13458.82055
871.5104 13254.96574
871.6903 13209.29604
871.8702 13327.91439
872.0500 13307.53710
872.2299 13317.14207
872.4097 13117.66992
872.5896 13240.83476
872.7694 13288.61387
872.9492 13136.18355
873.1290 12854.79265
873.3087 12913.46695
873.4885 13198.89236
873.6682 13164.93704
873.8480 13024.91741
874.0277 13052.54451
874.2074 12817.92921
874.3870 12931.61196
874.5667 12987.33719
874.7463 13049.00153
874.9260 12878.54909
875.1056 12872.50758
875.2852 12795.85211
875.4648 12728.74017
875.6444 12661.93543
875.8239 12837.40539
876.0035 12737.32116
876.1830 12732.81563
876.3625 12618.00650
876.5420 12623.98657
876.7215 12652.49430
876.9010 12428.93803
877.0804 12502.29627
877.2599 12425.23120
877.4393 12578.84934
877.6187 12596.21611
877.7981 12642.43877
877.9775 12428.13932
878.1568 12671.64280
878.3362 12539.56930
878.5155 12454.37380
878.6948 12261.51658
878.8741 12266.34979
879.0534 12186.02845
879.2327 12111.87150
879.4119 12085.73942
879.5912 12014.92066
879.7704 12162.78401
879.9496 12284.63815
880.1288 12138.72038
880.3080 11914.44732
880.4872 12051.39499
880.6663 12057.94849
880.8455 12064.91158
881.0246 12105.58424
881.2037 12101.34495
881.3828 12028.35534
881.5619 11951.16740
881.7409 11908.20101
881.9200 11764.14689
882.0990 11900.37777
882.2780 11851.06268
882.4570 11797.07823
882.6360 11813.15478
882.8150 11633.93704
882.9940 11555.37696
883.1729 11559.28858
883.3518 11802.85350
883.5308 11749.44247
883.7096 11755.09487
883.8885 11564.38802
884.0674 11513.31168
884.2463 11449.29217
884.4251 11505.16076
884.6039 11363.03173
884.7827 11453.36763
884.9615 11387.09536
885.1403 11426.02725
885.3191 11456.23479
885.4978 11249.82002
885.6765 11274.35468
885.8553 11417.20050
886.0340 11364.71107
886.2127 11321.19173
886.3913 11206.40308
886.5700 11142.11734
886.7486 11070.04932
886.9273 10993.47577
887.1059 10906.55998
887.2845 10940.02379
887.4630 11001.03277
887.6416 11074.67773
887.8202 11101.26037
887.9987 11036.70839
888.1772 11073.61279
888.3557 11047.48071
888.5342 10956.07986
888.7127 11023.66283
888.8912 10993.88536
889.0696 10934.30995
889.2481 10777.76322
889.4265 10713.27269
889.6049 10651.48547
889.7833 10690.58119
889.9616 10594.53146
890.1400 10596.86614
890.3183 10300.29979
890.4967 10422.17441
890.6750 10625.72202
890.8533 10544.88870
891.0316 10515.76658
891.2098 10413.38862
891.3881 10359.24033
891.5663 10359.54752
891.7445 10350.98701
891.9227 10207.30153
892.1009 10210.86499
892.2791 10384.73754
892.4573 10427.02809
892.6354 10282.62582
892.8136 10325.44884
892.9917 10276.80959
893.1698 10128.92576
893.3479 10303.67894
893.5259 10434.31886
893.7040 10301.44665
893.8820 10219.71222
894.0601 10197.75799
894.2381 10293.76677
894.4161 10316.35586
894.5941 10297.18687
894.7720 10297.98558
894.9500 10308.10255
895.1279 10365.36375
895.3058 10255.22400
895.4838 10268.24908
895.6616 10143.22058
895.8395 10078.42285
896.0174 10019.13416
896.1952 10070.04666
896.3731 10117.08850
896.5509 10057.96365
896.7287 10069.51419
896.9065 10044.36513
897.0842 10034.94448
897.2620 9970.37202
897.4397 9917.02244
897.6175 9937.50212
897.7952 9956.46631
897.9729 10119.07503
898.1506 10080.67562
898.3282 9952.73901
898.5059 9902.70713
898.6835 9919.41856
898.8611 10019.03176
899.0388 9887.85936
899.2163 9706.20453
899.3939 9675.05493
899.5715 9767.54120
899.7490 9741.88015
899.9266 9772.16961
900.1041 9842.02582
900.2816 9831.25350
900.4591 9734.52794
900.6365 9766.04618
900.8140 9637.72046
900.9914 9674.76821
901.1689 9642.04167
901.3463 9589.77751
901.5237 9613.37011
901.7011 9577.05962
901.8784 9568.82679
902.0558 9470.13517
902.2331 9531.86095
902.4104 9624.59298
902.5878 9646.48576
902.7650 9546.21721
902.9423 9486.98996
903.1196 9556.35466
903.2968 9668.82910
903.4741 9655.64018
903.6513 9513.40875
903.8285 9449.75789
904.0057 9465.30197
904.1828 9323.33677
904.3600 9212.68502
904.5371 9238.65327
904.7143 9285.79751
904.8914 9333.08511
905.0685 9429.33964
905.2456 9424.60883
905.4226 9412.64869
905.5997 9444.26933
905.7767 9522.01022
905.9537 9320.06002
906.1307 9226.85697
906.3077 9153.82640
906.4847 9124.66333
906.6617 9138.65095
906.8386 9194.78578
907.0156 9118.66278
907.1925 9043.95288
907.3694 9006.76177
907.5463 9072.58348
907.7231 9107.33751
907.9000 9117.72071
908.0768 9038.99679
908.2537 8884.35467
908.4305 8920.91092
908.6073 9120.03492
908.7841 9105.28954
908.9608 8971.29095
909.1376 8953.26882
909.3143 8914.05022
909.4910 8824.92262
909.6677 8821.21580
909.8444 8848.26946
910.0211 8883.76076
910.1978 8802.59976
910.3744 8819.53646
910.5510 8894.98363
910.7277 8879.78770
910.9043 8819.82318
911.0808 8852.83643
911.2574 8830.28830
911.4340 8755.06641
911.6105 8600.09661
911.7870 8660.59361
911.9636 8670.15762
912.1401 8632.45452
912.3165 8711.58803
912.4930 8636.36614
912.6695 8541.11511
912.8459 8548.03725
913.0223 8558.83004
913.1987 8539.62009
913.3751 8514.57344
913.5515 8424.60617
913.7279 8457.96758
913.9042 8466.54857
914.0805 8415.47223
914.2568 8382.37705
914.4331 8347.62302
914.6094 8355.38482
914.7857 8313.01235
914.9620 8304.18561
915.1382 8238.48677
915.3144 8186.36596
915.4906 8321.16327
915.6668 8343.48613
915.8430 8255.85354
916.0192 8061.84946
916.1953 8183.56025
916.3715 8245.73658
916.5476 8168.44624
916.7237 8202.03292
916.8998 8194.08681
917.0759 8126.03280
917.2519 8092.09796
917.4280 8161.58554
917.6040 8143.39958
917.7800 8128.12173
917.9560 8112.90532
918.1320 8047.00169
918.3080 8067.58378
918.4839 7982.75691
918.6599 7944.93093
918.8358 7981.61005
919.0117 8002.33549
919.1876 7924.10309
919.3635 7942.71912
919.5394 8000.49232
919.7152 7920.60106
919.8911 7864.60959
920.0669 7829.11830
920.2427 7762.04732
920.4185 7700.71065
920.5942 7704.00788
920.7700 7679.00219
920.9458 7727.88720
921.1215 7748.03921
921.2972 7729.17742
921.4729 7730.30380
921.6486 7599.43860
921.8243 7452.55828
921.9999 7474.14387
922.1756 7492.82135
922.3512 7524.07335
922.5268 7457.12525
922.7024 7556.14454
922.8780 7598.49653
923.0535 7591.41056
923.2291 7561.03919
923.4046 7590.34562
923.5801 7705.91250
923.7557 7583.54636
923.9311 7529.27519
924.1066 7486.80032
924.2821 7586.88455
924.4575 7576.64471
924.6330 7522.82409
924.8084 7418.17289
924.9838 7345.94103
925.1592 7331.03182
925.3345 7319.44031
925.5099 7303.69143
925.6852 7299.59550
925.8606 7266.27504
926.0359 7226.68781
926.2112 7196.66459
926.3864 7165.41258
926.5617 7092.19770
926.7370 7107.12739
926.9122 7075.56819
927.0874 7032.68373
927.2626 7015.76751
927.4378 7028.60827
927.6130 6995.14446
927.7882 6958.85445
927.9633 6924.98105
928.1384 6845.35603
928.3135 6745.86570
928.4886 6691.34878
928.6637 6742.40464
928.8388 6767.18506
929.0139 6780.74261
929.1889 6736.24025
929.3639 6726.34856
929.5389 6737.34615
929.7139 6717.33750
929.8889 6735.62586
930.0639 6767.79945
930.2388 6687.31428
930.4138 6664.06983
930.5887 6676.02997
930.7636 6753.60703
930.9385 6706.38087
931.1134 6567.87674
931.2882 6543.95647
931.4631 6472.70763
931.6379 6458.63809
931.8127 6442.74585
931.9875 6449.87278
932.1623 6444.15895
932.3371 6438.58847
932.5118 6436.84770
932.6866 6421.50841
932.8613 6388.74091
933.0360 6372.99203
933.2107 6299.59283
933.3854 6264.67497
933.5600 6287.69414
933.7347 6178.94700
933.9093 6177.00142
934.0839 6190.16986
934.2586 6212.84088
934.4331 6213.31191
934.6077 6162.09221
934.7823 6096.37290
934.9568 6126.17084
935.1314 6090.96626
935.3059 6090.53618
935.4804 6032.08716
935.6549 6043.14619
935.8293 6054.79913
936.0038 6027.52019
936.1782 6042.67515
936.3526 6036.46981
936.5271 5968.88684
936.7015 5918.87544
936.8758 5946.93262
937.0502 5944.37265
937.2246 5928.00938
937.3989 5979.92539
937.5732 5917.97434
937.7475 5870.13379
937.9218 5858.15317
938.0961 5835.13400
938.2703 5838.04212
938.4446 5791.49179
938.6188 5802.36650
938.7930 5761.53000
938.9672 5710.49462
939.1414 5745.78112
939.3156 5677.29705
939.4897 5609.03825
939.6639 5595.05063
939.8380 5620.91647
940.0121 5611.43438
940.1862 5641.25280
940.3603 5666.23802
940.5344 5672.46384
940.7084 5677.60425
940.8824 5657.24744
941.0565 5661.13858
941.2305 5605.43383
941.4045 5540.14458
941.5784 5515.17984
941.7524 5526.15696
941.9263 5600.96925
942.1003 5597.20099
942.2742 5560.31708
942.4481 5463.26384
942.6220 5453.04447
942.7958 5469.79686
942.9697 5494.94591
943.1435 5507.64332
943.3174 5475.22397
943.4912 5466.21291
943.6650 5434.61275
943.8387 5393.77626
944.0125 5328.63037
944.1863 5362.54473
944.3600 5348.96670
944.5337 5310.71064
944.7074 5334.73332
944.8811 5324.00196
945.0548 5275.30126
945.2284 5203.56092
945.4021 5201.26719
945.5757 5237.04521
945.7493 5165.79637
945.9229 5066.77709
946.0965 5051.84739
946.2701 5016.47897
946.4436 5056.27101
946.6172 5068.08779
946.7907 5060.83798
946.9642 5038.47416
947.1377 5049.12360
947.3112 5050.98725
947.4847 5074.94848
947.6581 5086.53998
947.8315 5075.68575
948.0050 5005.50186
948.1784 4960.83566
948.3518 5013.71422
948.5251 4966.20134
948.6985 5018.50646
948.8718 5010.27363
949.0452 4938.49232
949.2185 4940.76557
949.3918 4914.14198
949.5651 4937.18162
949.7383 4868.30843
949.9116 4876.21359
950.0848 4882.70565
950.2581 4904.90564
950.4313 4930.15709
950.6045 4932.57369
950.7776 4926.42979
950.9508 4869.39386
951.1239 4828.72120
951.2971 4763.14524
951.4702 4785.07898
951.6433 4743.81241
951.8164 4732.05707
951.9895 4769.22771
952.1625 4711.18827
952.3356 4735.02663
952.5086 4678.33885
952.6816 4736.78788
952.8546 4711.41355
953.0276 4690.23755
953.2006 4698.77758
953.3735 4661.68887
953.5465 4669.10251
953.7194 4640.18520
953.8923 4619.27543
954.0652 4649.66729
954.2381 4576.73912
954.4109 4542.37421
954.5838 4528.85761
954.7566 4514.27608
954.9294 4468.17630
955.1022 4499.24399
955.2750 4512.84250
955.4478 4492.30137
955.6206 4510.67165
955.7933 4527.26020
955.9660 4486.25986
956.1388 4485.97315
956.3115 4439.36138
956.4841 4410.56694
956.6568 4379.51973
956.8295 4363.72989
957.0021 4338.10980
957.1747 4385.74556
957.3473 4339.62530
957.5199 4319.67809
957.6925 4345.05242
957.8651 4358.79429
958.0376 4372.70000
958.2102 4325.61720
958.3827 4359.47012
958.5552 4424.22689
958.7277 4375.73099
958.9001 4331.24911
959.0726 4251.64456
959.2450 4229.69034
959.4175 4237.37022
959.5899 4173.06400
959.7623 4179.20791
959.9347 4133.14909
960.1070 4106.34118
960.2794 4111.01055
960.4517 4097.30964
960.6241 4118.34228
960.7964 4147.38248
960.9687 4149.98340
961.1409 4133.74300
961.3132 4105.31720
961.4855 4051.59898
961.6577 4062.82185
961.8299 4062.86280
962.0021 4075.86741
962.1743 4002.01765
962.3465 3977.89258
962.5186 3975.47598
962.6908 3989.91416
962.8629 3978.87561
963.0350 3981.39461
963.2071 3961.26307
963.3792 3944.12158
963.5513 3917.37510
963.7233 3953.84943
963.8954 3953.60367
964.0674 3928.41366
964.2394 3914.15979
964.4114 3896.32199
964.5834 3892.06221
964.7553 3900.04929
964.9273 3900.39744
965.0992 3845.51188
965.2711 3877.80835
965.4430 3876.08805
965.6149 3866.05301
965.7868 3826.75249
965.9587 3804.71634
966.1305 3833.42887
966.3023 3834.82148
966.4741 3835.35396
966.6459 3800.10841
966.8177 3817.41375
966.9895 3799.80122
967.1613 3784.81009
967.3330 3787.88204
967.5047 3735.53596
967.6764 3749.11399
967.8481 3737.03098
968.0198 3718.39446
968.1915 3696.80887
968.3631 3689.96865
968.5347 3676.20630
968.7064 3671.00446
968.8780 3669.75520
969.0496 3663.81609
969.2211 3649.99230
969.3927 3655.46038
969.5642 3645.65061
969.7358 3618.57646
969.9073 3584.49826
970.0788 3637.78641
970.2503 3658.59377
970.4217 3636.31187
970.5932 3607.90655
970.7646 3611.16282
970.9360 3603.13478
971.1074 3607.21024
971.2788 3638.48272
971.4502 3609.66780
971.6216 3572.14901
971.7929 3549.02745
971.9643 3530.59573
972.1356 3559.90216
972.3069 3536.94443
972.4782 3537.47690
972.6494 3504.13597
972.8207 3499.79428
972.9919 3495.08395
973.1632 3463.97530
973.3344 3423.77368
973.5056 3404.35893
973.6768 3411.50634
973.8479 3463.25851
974.0191 3467.74357
974.1902 3448.82033
974.3614 3434.64839
974.5325 3428.21777
974.7036 3418.05984
974.8746 3413.61575
975.0457 3398.19455
975.2167 3369.87114
975.3878 3350.53831
975.5588 3365.24273
975.7298 3357.19421
975.9008 3336.46877
976.0718 3321.37524
976.2427 3311.27875
976.4137 3295.65275
976.5846 3291.72065
976.7555 3262.22990
976.9264 3281.19409
977.0973 3281.29649
977.2682 3292.15073
977.4390 3295.61179
977.6098 3313.18336
977.7807 3314.59646
977.9515 3316.39868
978.1223 3324.69295
978.2930 3273.65757
978.4638 3263.17197
978.6346 3218.89488
978.8053 3200.11501
978.9760 3187.97055
979.1467 3172.03736
979.3174 3188.38015
979.4881 3185.57443
979.6587 3179.96300
979.8294 3168.08478
980.0000 3158.31597
980.1706 3151.57815
980.3412 3116.49645
980.5118 3103.28705
980.6824 3107.23963
980.8529 3135.27632
981.0235 3138.02060
981.1940 3134.31377
981.3645 3106.74811
981.5350 3114.65327
981.7055 3086.04315
981.8759 3084.38430
982.0464 3096.09868
982.2168 3064.39612
982.3872 3098.14665
982.5576 3087.12857
982.7280 3082.13153
982.8984 3080.37028
983.0687 3082.86880
983.2391 3048.97492
983.4094 3043.32252
983.5797 3017.88675
983.7500 3010.94414
983.9203 2999.55743
984.0906 3008.44561
984.2608 2989.74766
984.4311 3006.04949
984.6013 2981.16667
984.7715 3011.76332
984.9417 3002.97754
985.1119 2993.20873
985.2820 2950.85673
985.4522 2956.48865
985.6223 2954.35876
985.7924 2955.60802
985.9625 2981.65818
986.1326 2991.61131
986.3027 2953.56005
986.4727 2961.77241
986.6428 2936.17280
986.8128 2932.42501
986.9828 2907.50123
987.1528 2912.41636
987.3228 2922.14421
987.4928 2925.64624
987.6627 2920.05528
987.8327 2908.01323
988.0026 2886.85771
988.1725 2881.06196
988.3424 2857.57176
988.5123 2863.49039
988.6821 2844.87435
988.8520 2858.61622
989.0218 2834.28635
989.1916 2876.10587
989.3614 2818.27124
989.5312 2812.82364
989.7010 2796.05078
989.8707 2802.80907
990.0405 2791.13565
990.2102 2788.78049
990.3799 2781.36684
990.5496 2777.33234
990.7193 2771.31131
990.8890 2771.16795
991.0586 2756.60690
991.2283 2781.73547
991.3979 2746.73569
991.5675 2757.56944
991.7371 2751.30266
991.9067 2739.11724
992.0762 2710.28184
992.2458 2724.02371
992.4153 2744.01189
992.5848 2749.88956
992.7543 2752.67480
992.9238 2718.00269
993.0933 2727.15711
993.2627 2711.98166
993.4322 2704.52705
993.6016 2714.02963
993.7710 2677.90346
993.9404 2684.02688
994.1098 2671.61619
994.2792 2683.78113
994.4485 2657.83336
994.6179 2650.66547
994.7872 2675.42542
994.9565 2667.02874
995.1258 2667.97081
995.2951 2671.94387
995.4643 2669.26103
995.6336 2668.50328
995.8028 2644.60349
995.9720 2620.21218
996.1412 2634.05645
996.3104 2628.91605
996.4796 2621.72768
996.6487 2638.27526
996.8179 2637.92711
996.9870 2632.45903
997.1561 2608.66163
997.3252 2608.17012
997.4943 2587.03508
997.6634 2588.69394
997.8324 2584.72088
998.0014 2585.13047
998.1705 2584.67992
998.3395 2542.14361
998.5085 2522.64695
998.6774 2535.01668
998.8464 2520.59898
999.0153 2533.72646
999.1843 2532.37480
999.3532 2545.35892
999.5221 2526.49713
999.6910 2542.14361
999.8599 2555.70116
1000.0287 2568.82864
1000.1976 2562.13178
1000.3664 2562.50042
1000.5352 2556.29507
1000.7040 2544.62165
1000.8728 2528.07406
1001.0415 2498.50140
1001.2103 2480.15160
1001.3790 2480.72503
1001.5478 2469.37928
1001.7165 2452.07394
1001.8851 2462.98962
1002.0538 2468.72393
1002.2225 2476.89533
1002.3911 2482.32244
1002.5598 2462.94866
1002.7284 2446.19627
1002.8970 2442.94000
1003.0656 2455.80125
1003.2341 2442.12082
1003.4027 2429.44389
1003.5712 2382.25869
1003.7398 2396.81975
1003.9083 2400.28081
1004.0768 2386.90758
1004.2453 2370.70815
1004.4137 2387.87012
1004.5822 2384.04042
1004.7506 2396.00056
1004.9190 2371.93693
1005.0874 2368.37346
1005.2558 2369.33601
1005.4242 2366.79652
1005.5926 2373.20667
1005.7609 2362.45483
1005.9292 2342.85577
1006.0976 2363.60169
1006.2659 2352.07163
1006.4342 2366.89892
1006.6024 2361.88140
1006.7707 2362.14764
1006.9389 2359.11664
1007.1071 2357.99026
1007.2754 2363.94985
1007.4436 2352.50170
1007.6117 2328.33567
1007.7799 2330.71132
1007.9481 2321.41354
1008.1162 2331.53050
1008.2843 2324.52645
1008.4524 2320.36907
1008.6205 2313.46742
1008.7886 2310.33403
1008.9566 2308.42942
1009.1247 2291.45175
1009.2927 2279.32778
1009.4607 2290.34585
1009.6287 2267.69532
1009.7967 2267.81820
1009.9647 2270.64439
1010.1327 2272.44660
1010.3006 2251.86452
1010.4685 2252.13075
1010.6364 2241.76803
1010.8043 2239.65863
1010.9722 2231.32339
1011.1401 2218.29831
1011.3079 2215.26732
1011.4758 2230.60660
1011.6436 2217.58152
1011.8114 2234.43630
1011.9792 2224.11454
1012.1470 2241.11268
1012.3147 2242.48482
1012.4825 2233.80143
1012.6502 2238.67560
1012.8179 2247.48187
1012.9856 2220.67395
1013.1533 2228.68151
1013.3210 2206.29721
1013.4886 2206.64537
1013.6563 2181.12768
1013.8239 2191.89999
1013.9915 2197.96198
1014.1591 2178.50628
1014.3267 2180.90240
1014.4942 2189.40147
1014.6618 2184.03579
1014.8293 2182.60222
1014.9969 2182.76605
1015.1644 2195.32010
1015.3319 2179.05923
1015.4993 2172.07566
1015.6668 2167.59060
1015.8342 2156.24486
1016.0017 2156.28582
1016.1691 2164.70297
1016.3365 2154.09449
1016.5039 2153.33674
1016.6712 2148.13490
1016.8386 2148.48306
1017.0059 2136.35908
1017.1733 2149.69136
1017.3406 2132.52938
1017.5079 2144.77623
1017.6752 2109.08014
1017.8424 2119.38142
1018.0097 2114.93733
1018.1769 2122.41241
1018.3441 2111.37386
1018.5113 2111.41482
1018.6785 2095.15395
1018.8457 2119.58622
1019.0129 2116.69858
1019.1800 2111.12811
1019.3471 2119.36094
1019.5142 2112.54120
1019.6813 2110.73899
1019.8484 2114.09766
1020.0155 2103.98070
1020.1826 2098.98365
1020.3496 2073.89603
1020.5166 2057.08221
1020.6836 2060.89143
1020.8506 2072.72869
1021.0176 2046.67853
1021.1846 2069.34954
1021.3515 2048.50122
1021.5185 2065.08977
1021.6854 2048.89034
1021.8523 2064.63922
1022.0192 2060.64568
1022.1861 2058.65915
1022.3529 2028.86120
1022.5198 2058.82298
1022.6866 2040.39127
1022.8534 2052.96579
1023.0202 2035.14847
1023.1870 2038.13850
1023.3538 2037.38075
1023.5205 2035.63998
1023.6873 2037.44219
1023.8540 2033.38721
1024.0207 2022.53298
1024.1874 2025.99405
1024.3541 2013.11232
1024.5207 2028.08297
1024.6874 2016.24571
1024.8540 2025.19534
1025.0206 1999.45237
1025.1872 2009.77413
1025.3538 2001.19314
1025.5204 2011.00291
1025.6870 1997.83448
1025.8535 1999.37045
1026.0201 2005.00237
1026.1866 2002.17617
1026.3531 1978.99316
1026.5196 1986.75496
1026.6860 1982.00368
1026.8525 1993.65662
1027.0189 1970.63745
1027.1853 1985.46474
1027.3518 1970.84225
1027.5181 1972.80830
1027.6845 1968.30277
1027.8509 1962.11790
1028.0172 1944.38249
1028.1836 1949.25666
1028.3499 1940.32751
1028.5162 1953.25020
1028.6825 1934.65464
1028.8488 1940.83950
1029.0150 1926.01221
1029.1813 1931.31645
1029.3475 1931.45981
1029.5137 1935.67862
1029.6799 1929.82143
1029.8461 1924.00520
1030.0123 1915.48565
1030.1784 1911.04156
1030.3446 1919.64303
1030.5107 1921.71148
1030.6768 1915.50613
1030.8429 1906.86370
1031.0090 1902.68585
1031.1750 1911.34875
1031.3411 1898.56943
1031.5071 1913.76536
1031.6732 1903.91463
1031.8392 1894.49397
1032.0051 1885.03236
1032.1711 1895.43604
1032.3371 1892.60984
1032.5030 1897.66832
1032.6690 1895.72275
1032.8349 1885.76963
1033.0008 1880.54730
1033.1667 1892.79416
1033.3325 1875.87794
1033.4984 1881.07978
1033.6642 1884.39749
1033.8300 1900.04397
1033.9959 1875.98033
1034.1616 1884.66372
1034.3274 1881.16170
1034.4932 1871.37240
1034.6589 1874.03476
1034.8247 1883.78310
1034.9904 1863.91780
1035.1561 1867.72702
1035.3218 1868.71005
1035.4875 1862.23846
1035.6531 1862.46374
1035.8188 1871.02425
1035.9844 1854.82482
1036.1500 1853.71891
1036.3156 1838.50251
1036.4812 1835.14384
1036.6468 1843.70435
1036.8123 1841.79974
1036.9779 1841.00103
1037.1434 1843.29475
1037.3089 1843.19235
1037.4744 1852.16246
1037.6399 1850.97464
1037.8053 1827.66875
1037.9708 1836.88461
1038.1362 1833.07539
1038.3016 1828.79513
1038.4670 1831.45749
1038.6324 1835.69679
1038.7978 1807.25050
1038.9632 1835.79919
1039.1285 1828.30362
1039.2938 1815.50382
1039.4592 1827.07484
1039.6245 1814.80751
1039.7897 1817.22411
1039.9550 1809.99478
1040.1203 1816.73260
1040.2855 1804.81342
1040.4507 1812.88242
1040.6159 1797.44073
1040.7811 1805.38685
1040.9463 1801.51619
1041.1115 1796.94922
1041.2766 1790.29332
1041.4418 1782.44960
1041.6069 1774.25773
1041.7720 1784.55901
1041.9371 1766.82360
1042.1021 1774.89260
1042.2672 1768.48245
1042.4323 1773.43854
1042.5973 1773.23374
1042.7623 1772.04592
1042.9273 1774.66732
1043.0923 1768.01142
1043.2572 1767.92950
1043.4222 1755.74409
1043.5871 1753.73708
1043.7521 1768.17526
1043.9170 1775.32267
1044.0819 1755.47785
1044.2467 1750.91088
1044.4116 1754.55627
1044.5765 1747.49077
1044.7413 1747.18358
1044.9061 1744.50074
1045.0709 1749.21107
1045.2357 1734.46569
1045.4005 1743.70203
1045.5652 1728.28083
1045.7300 1724.24633
1045.8947 1716.89412
1046.0594 1724.55352
1046.2241 1731.22990
1046.3888 1728.73138
1046.5535 1731.33230
1046.7181 1725.37271
1046.8828 1718.53250
1047.0474 1718.81921
1047.2120 1712.83914
1047.3766 1724.94264
1047.5412 1710.72974
1047.7057 1708.29265
1047.8703 1710.66830
1048.0348 1716.11589
1048.1993 1709.43952
1048.3639 1701.04284
1048.5283 1691.88842
1048.6928 1688.87791
1048.8573 1690.39341
1049.0217 1697.82753
1049.1861 1682.81592
1049.3506 1693.44488
1049.5150 1683.30743
1049.6793 1697.56130
1049.8437 1679.41629
1050.0081 1691.56075
1050.1724 1687.56721
1050.3367 1686.62514
1050.5010 1665.92018
1050.6653 1681.48474
1050.8296 1674.37829
1050.9939 1673.12903
1051.1581 1668.15247
1051.3224 1673.86630
1051.4866 1653.71429
1051.6508 1675.44323
1051.8150 1657.27775
1051.9791 1660.65690
1052.1433 1642.92149
1052.3074 1660.18587
1052.4716 1655.12738
1052.6357 1654.90211
1052.7998 1643.69972
1052.9639 1655.84417
1053.1279 1636.28607
1053.2920 1636.94142
1053.4560 1630.81800
1053.6201 1648.22573
1053.7841 1634.77058
1053.9481 1632.45637
1054.1120 1630.01929
1054.2760 1624.73553
1054.4399 1631.45287
1054.6039 1633.74659
1054.7678 1623.22003
1054.9317 1633.25508
1055.0956 1626.35342
1055.2595 1628.83147
1055.4233 1619.41081
1055.5872 1619.32889
1055.7510 1609.25288
1055.9148 1624.79697
1056.0786 1601.98260
1056.2424 1628.11468
1056.4062 1610.64550
1056.5699 1617.81339
1056.7336 1609.96967
1056.8974 1598.11193
1057.0611 1598.37817
1057.2248 1599.38168
1057.3885 1599.11544
1057.5521 1591.00548
1057.7158 1587.33962
1057.8794 1599.56599
1058.0430 1595.92061
1058.2066 1592.41858
1058.3702 1581.87154
1058.5338 1596.73980
1058.6973 1578.88151
1058.8609 1592.02947
1059.0244 1575.05181
1059.1879 1583.57136
1059.3514 1572.08225
1059.5149 1587.09386
1059.6784 1571.54978
1059.8418 1568.10919
1060.0053 1569.66565
1060.1687 1565.97930
1060.3321 1561.55569
1060.4955 1569.74757
1060.6589 1558.79093
1060.8222 1564.38189
1060.9856 1555.26843
1061.1489 1554.42876
1061.3122 1546.03209
1061.4755 1560.20403
1061.6388 1549.26788
1061.8021 1564.70956
1061.9654 1547.46567
1062.1286 1555.47323
1062.2918 1543.18541
1062.4550 1550.35330
1062.6182 1540.42065
1062.7814 1559.73300
1062.9446 1542.81678
1063.1077 1543.34925
1063.2709 1532.63837
1063.4340 1533.45756
1063.5971 1521.51790
1063.7602 1529.77122
1063.9233 1522.43949
1064.0863 1532.35166
1064.2494 1517.40149
1064.4124 1526.88358
1064.5754 1522.91052
1064.7384 1518.95794
1064.9014 1526.06439
1065.0644 1516.02935
1065.2274 1505.35943
1065.3903 1514.20665
1065.5532 1503.84393
1065.7162 1510.76607
1065.8790 1510.00832
1066.0419 1506.79301
1066.2048 1511.95389
1066.3677 1505.11367
1066.5305 1494.99671
1066.6933 1498.53969
1066.8561 1494.38232
1067.0189 1501.14061
1067.1817 1489.59007
1067.3445 1488.62753
1067.5072 1482.68842
1067.6699 1476.66739
1067.8327 1479.04303
1067.9954 1480.86572
1068.1580 1473.88215
1068.3207 1481.60299
1068.4834 1464.48197
1068.6460 1476.72883
1068.8086 1470.15485
1068.9713 1471.34267
1069.1339 1467.14433
1069.2964 1470.01149
1069.4590 1456.72017
1069.6216 1472.79673
1069.7841 1463.25319
1069.9466 1463.25319
1070.1091 1446.17313
1070.2716 1453.77110
1070.4341 1454.07829
1070.5966 1455.81907
1070.7590 1448.50782
1070.9214 1453.01335
1071.0839 1445.70210
1071.2463 1441.95432
1071.4086 1430.79289
1071.5710 1438.61613
1071.7334 1430.40377
1071.8957 1438.77997
1072.0580 1439.68107
1072.2204 1434.54067
1072.3827 1421.29031
1072.5449 1427.08606
1072.7072 1426.88127
1072.8695 1419.65194
1073.0317 1416.31375
1073.1939 1418.21836
1073.3561 1423.76835
1073.5183 1420.77832
1073.6805 1415.63792
1073.8427 1417.58349
1074.0048 1410.04696
1074.1669 1412.13589
1074.3291 1398.92649
1074.4912 1410.51800
1074.6532 1401.87557
1074.8153 1406.70878
1074.9774 1388.46137
1075.1394 1402.10085
1075.3014 1399.76616
1075.4635 1404.31265
1075.6255 1391.53333
1075.7874 1404.39457
1075.9494 1380.65861
1076.1114 1397.65675
1076.2733 1378.59016
1076.4352 1396.63277
1076.5971 1382.58370
1076.7590 1390.38646
1076.9209 1382.39939
1077.0828 1386.70012
1077.2446 1377.60714
1077.4064 1380.65861
1077.5683 1377.91433
1077.7301 1368.71895
1077.8918 1361.77634
1078.0536 1378.56968
1078.2154 1365.62652
1078.3771 1376.43980
1078.5388 1364.33630
1078.7006 1369.10807
1078.8623 1361.85826
1079.0239 1354.01454
1079.1856 1352.04849
1079.3473 1361.51010
1079.5089 1354.93613
1079.6705 1354.11694
1079.8321 1349.63189
1079.9937 1355.63243
1080.1553 1334.86603
1080.3169 1344.92156
1080.4784 1332.75662
1080.6399 1351.43410
1080.8014 1337.99942
1080.9629 1357.43465
1081.1244 1344.10237
1081.2859 1335.97193
1081.4474 1326.14168
1081.6088 1335.52138
1081.7702 1332.16271
1081.9316 1339.51492
1082.0930 1331.05681
1082.2544 1322.16862
1082.4158 1320.89888
1082.5771 1323.82748
1082.7385 1314.16107
1082.8998 1324.70811
1083.0611 1312.62509
1083.2224 1313.60812
1083.3837 1316.06568
1083.5449 1310.88432
1083.7062 1310.33137
1083.8674 1314.71402
1084.0286 1303.38875
1084.1898 1319.44483
1084.3510 1290.34319
1084.5122 1301.56606
1084.6734 1302.75388
1084.8345 1307.30037
1084.9956 1294.76680
1085.1567 1300.29632
1085.3178 1287.68083
1085.4789 1300.68543
1085.6400 1297.81828
1085.8010 1292.18636
1085.9621 1293.94762
1086.1231 1293.59946
1086.2841 1276.33508
1086.4451 1290.22031
1086.6061 1282.37659
1086.7670 1284.15832
1086.9280 1278.44449
1087.0889 1276.45796
1087.2498 1285.14135
1087.4107 1279.63231
1087.5716 1276.70372
1087.7325 1272.46442
1087.8933 1263.02329
1088.0542 1295.89319
1088.2150 1265.91092
1088.3758 1278.48545
1088.5366 1261.30299
1088.6974 1268.10225
1088.8582 1265.89044
1089.0189 1266.25908
1089.1796 1266.40244
1089.3404 1268.14321
1089.5011 1262.18362
1089.6618 1278.54689
1089.8224 1254.40134
1089.9831 1279.18176
1090.1438 1261.85595
1090.3044 1275.14726
1090.4650 1266.70963
1090.6256 1266.19764
1090.7862 1256.42883
1090.9468 1265.00982
1091.1073 1258.16960
1091.2679 1261.69211
1091.4284 1262.44986
1091.5889 1260.66812
1091.7494 1258.76351
1091.9099 1264.23159
1092.0703 1259.60318
1092.2308 1263.80152
1092.3912 1260.60668
1092.5516 1270.43693
1092.7121 1254.54470
1092.8724 1265.91092
1093.0328 1248.64655
1093.1932 1260.58620
1093.3535 1251.00171
1093.5139 1257.94433
1093.6742 1254.60614
1093.8345 1261.26203
1093.9948 1253.58215
1094.1550 1262.57273
1094.3153 1254.60614
1094.4755 1257.55521
1094.6358 1252.80392
1094.7960 1255.24101
1094.9562 1258.51776
1095.1163 1256.81794
1095.2765 1247.35633
1095.4367 1251.67754
1095.5968 1249.28142
1095.7569 1260.46333
1095.9170 1248.31887
1096.0771 1263.82200
1096.2372 1252.55817
1096.3973 1262.42938
1096.5573 1256.79746
1096.7173 1261.28251
1096.8773 1253.25448
1097.0374 1256.53123
1097.1973 1256.59267
1097.3573 1258.76351
1097.5173 1245.55411
1097.6772 1257.28898
1097.8371 1244.67349
1097.9970 1253.78695
1098.1569 1250.05965
1098.3168 1253.80743
1098.4767 1244.98068
1098.6365 1253.27496
1098.7964 1259.35742
1098.9562 1254.91333
1099.1160 1241.39674
1099.2758 1260.36093
1099.4356 1246.12755
1099.5953 1261.91738
1099.7551 1254.31942
1099.9148 1255.87588
1100.0745 1253.25448
1100.2342 1253.47975
1100.3939 1245.94323
1100.5536 1262.75705
1100.7132 1248.48271
1100.8729 1253.97127
1101.0325 1251.22699
1101.1921 1256.20355
1101.3517 1246.96721
1101.5113 1257.98528
1101.6709 1256.01923
1101.8304 1247.19249
1101.9899 1247.66352
1102.1495 1261.73307
1102.3090 1248.05264
1102.4685 1261.67163
1102.6279 1243.09655
1102.7874 1258.55872
1102.9468 1249.65005
1103.1063 1249.17902
1103.2657 1241.68345
1103.4251 1256.28547
1103.5845 1243.85430
1103.7438 1259.84894
1103.9032 1245.14452
1104.0625 1252.76296
1104.2219 1248.76942
1104.3812 1254.60614
1104.5405 1243.19895
1104.6997 1260.23805
1104.8590 1249.11758
1105.0183 1255.20005
1105.1775 1253.00872
1105.3367 1261.69211
1105.4959 1253.19304
1105.6551 1255.15909
1105.8143 1241.43770
1105.9735 1260.13565
1106.1326 1244.59157
1106.2917 1259.64414
1106.4508 1242.15449
1106.6099 1254.15558
1106.7690 1241.13050
1106.9281 1256.69506
1107.0872 1247.99120
1107.2462 1261.38491
1107.4052 1248.62607
1107.5642 1253.64359
1107.7232 1248.89230
1107.8822 1252.84488
1108.0412 1248.40079
1108.2001 1256.96130
1108.3591 1245.67699
1108.5180 1251.08363
1108.6769 1247.78640
1108.8358 1254.09414
1108.9947 1245.51315
1109.1535 1265.84948
1109.3124 1249.50669
1109.4712 1253.35687
1109.6300 1249.79341
1109.7888 1259.15263
1109.9476 1248.48271
1110.1064 1260.29949
1110.2651 1254.01222
1110.4239 1252.57865
1110.5826 1249.34286
1110.7413 1255.60964
1110.9000 1245.49267
1111.0587 1256.81794
1111.2173 1247.17201
1111.3760 1248.76942
1111.5346 1257.08418
1111.6932 1255.71204
1111.8518 1246.86481
1112.0104 1255.91684
1112.1690 1238.01759
1112.3276 1262.81849
1112.4861 1244.07958
1112.6446 1249.87533
1112.8032 1255.42532
1112.9617 1256.49027
1113.1201 1247.06961
1113.2786 1256.42883
1113.4371 1243.79286
1113.5955 1248.40079
1113.7539 1246.90577
1113.9123 1251.43178
1114.0707 1251.67754
1114.2291 1259.19359
1114.3875 1250.08012
1114.5458 1254.54470
1114.7042 1250.42828
1114.8625 1249.58861
1115.0208 1247.06961
1115.1791 1259.43934
1115.3374 1247.95024
1115.4956 1250.30540
1115.6539 1247.84784
1115.8121 1254.05318
1115.9703 1248.50319
1116.1285 1254.25798
1116.2867 1246.00467
1116.4449 1254.31942
1116.6030 1251.94378
1116.7612 1254.56518
1116.9193 1241.51962
1117.0774 1254.01222
1117.2355 1247.19249
1117.3936 1257.80097
1117.5516 1251.69802
1117.7097 1246.29138
1117.8677 1246.55762
1118.0257 1261.22107
1118.1837 1252.35337
1118.3417 1258.94783
1118.4997 1256.46979
1118.6577 1245.26740
1118.8156 1247.27441
1118.9735 1250.61260
1119.1315 1242.35928
1119.2894 1260.13565
1119.4472 1247.70448
1119.6051 1250.57164
1119.7630 1244.65301
1119.9208 1259.25503
1120.0786 1250.42828
1120.2364 1254.33990
1120.3942 1241.08954
1120.5520 1255.69156
1120.7098 1253.31592
1120.8675 1254.89285
1121.0253 1253.29544
1121.1830 1260.58620
1121.3407 1255.01573
1121.4984 1258.00576
1121.6560 1255.95780
