# Averages = 100
# wavelength [µm]	intensity
446.8250 14.33578
447.0374 36746.70328
447.2498 1226.93808
447.4621 1223.57941
447.6745 1229.72332
447.8868 1244.55061
448.0992 1241.41722
448.3115 1237.17792
448.5238 1244.87828
448.7360 1240.82331
448.9483 1250.61260
449.1606 1242.17497
449.3728 1264.82550
449.5850 1231.91464
449.7972 1242.13401
450.0094 1243.28087
450.2216 1253.21352
450.4337 1255.26149
450.6459 1736.49318
450.8580 2106.82737
451.0701 2140.70078
451.2822 2160.99615
451.4943 2147.13140
451.7064 2136.99395
451.9184 2133.53288
452.1305 2231.73299
452.3425 2330.64988
452.5545 2223.39775
452.7665 2243.01729
452.9785 2336.77330
453.1905 2366.24357
453.4024 2320.12332
453.6143 2433.23263
453.8263 2429.28005
454.0382 2624.04188
454.2501 2414.59612
454.4619 2385.84263
454.6738 2524.30580
454.8856 2656.27691
455.0975 2453.95808
455.3093 2453.09793
455.5211 2519.22684
455.7329 2487.58572
455.9446 2542.59416
456.1564 2563.34009
456.3681 2655.90827
456.5798 2765.74084
456.7916 2685.11231
457.0033 2659.86085
457.2149 2636.26825
457.4266 2668.07321
457.6382 2710.09753
457.8499 2694.10289
458.0615 2800.29007
458.2731 2696.92909
458.4847 2822.71533
458.6963 2913.56322
458.9078 2946.84271
459.1194 3113.15826
459.3309 3130.83223
459.5424 2954.66595
459.7539 2868.20071
459.9654 2880.42709
460.1769 2933.73571
460.3883 2916.67613
460.5998 2776.79987
460.8112 2775.20245
461.0226 2825.82824
461.2340 2911.63813
461.4454 2876.59739
461.6567 2850.69058
461.8681 2865.37452
462.0794 2810.57087
462.2907 2952.22887
462.5020 3212.17755
462.7133 3297.90552
462.9246 3065.11291
463.1359 2922.20565
463.3471 2789.68159
463.5583 2861.23762
463.7696 3264.09355
463.9808 3103.22561
464.1919 3032.01773
464.4031 3030.19504
464.6143 3038.57123
464.8254 2954.87075
465.0365 2923.74163
465.2476 3190.81723
465.4587 3351.11175
465.6698 2934.43202
465.8809 3010.20687
466.0919 2986.92146
466.3030 3045.78008
466.5140 3084.83485
466.7250 3008.97809
466.9360 3138.26635
467.1469 3061.13985
467.3579 2878.07192
467.5688 2862.11825
467.7798 3103.12321
467.9907 3225.42790
468.2016 3099.02727
468.4125 3069.10645
468.6233 2912.10916
468.8342 2948.19437
469.0450 3124.50400
469.2559 3222.47883
469.4667 3167.98238
469.6775 2928.69771
469.8882 3080.14500
470.0990 3050.36753
470.3098 3347.38444
470.5205 3150.24697
470.7312 3230.97790
470.9419 3464.77401
471.1526 3353.50787
471.3633 3064.49852
471.5739 3094.21455
471.7846 3080.59555
471.9952 3017.10852
472.2058 3131.67189
472.4164 3101.36196
472.6270 3084.36382
472.8376 3218.79248
473.0481 3401.02074
473.2587 3487.85462
473.4692 3385.06707
473.6797 3273.10462
473.8902 3031.83342
474.1007 3005.47606
474.3111 3034.12714
474.5216 2964.08661
474.7320 3092.12562
474.9424 3251.55998
475.1528 3314.98558
475.3632 3182.78919
475.5736 3136.83277
475.7840 3142.56709
475.9943 3170.72666
476.2046 3207.22146
476.4149 3278.32694
476.6252 3295.67323
476.8355 3414.12774
477.0458 3479.02787
477.2561 3475.54633
477.4663 3309.86565
477.6765 3325.04110
477.8867 3350.92743
478.0969 3328.48169
478.3071 3317.46362
478.5173 3421.15228
478.7274 3399.50525
478.9375 3451.46221
479.1477 3417.93697
479.3578 3568.19643
479.5679 3519.53670
479.7779 3541.06085
479.9880 3526.49979
480.1980 3590.15066
480.4081 3595.88497
480.6181 3464.52825
480.8281 3589.16763
481.0381 3501.86272
481.2480 3509.35829
481.4580 3597.07279
481.6679 3562.56452
481.8778 3517.01769
482.0877 3527.21658
482.2976 3432.04747
482.5075 3518.41031
482.7174 3606.59585
482.9272 3658.14322
483.1371 3539.42247
483.3469 3585.01026
483.5567 3724.86604
483.7665 3589.94586
483.9762 3641.77995
484.1860 3795.86912
484.3957 3783.25363
484.6055 3636.16852
484.8152 3710.05923
485.0249 3838.58975
485.2346 3817.90526
485.4442 3809.26283
485.6539 3862.91962
485.8635 3831.97481
486.0732 3712.84447
486.2828 3735.31068
486.4924 3742.62193
486.7019 3847.41649
486.9115 3812.27335
487.1210 3818.56061
487.3306 3948.85238
487.5401 3910.08434
487.7496 3962.84001
487.9591 4019.75306
488.1686 3974.49295
488.3780 3910.30961
488.5875 4009.67706
488.7969 4107.87716
489.0063 4071.40283
489.2157 4141.56624
489.4251 4060.44620
489.6345 4029.27612
489.8438 4156.92601
490.0531 3976.54092
490.2625 4052.41816
490.4718 4133.04669
490.6811 4192.29443
490.8903 4227.94957
491.0996 4253.91781
491.3089 4264.42389
491.5181 4324.92089
491.7273 4328.07476
491.9365 4302.63899
492.1457 4380.11364
492.3549 4387.46585
492.5640 4324.63417
492.7732 4375.58763
492.9823 4436.06415
493.1914 4554.33435
493.4005 4532.07293
493.6096 4484.66245
493.8187 4454.25011
494.0277 4546.16295
494.2368 4559.16755
494.4458 4607.29482
494.6548 4653.80419
494.8638 4704.94197
495.0728 4684.78995
495.2817 4697.65120
495.4907 4712.19178
495.6996 4754.13418
495.9085 4758.59875
496.1174 4844.20384
496.3263 4831.11732
496.5352 4849.81528
496.7440 4959.56592
496.9529 4981.80686
497.1617 4909.71836
497.3705 4949.65375
497.5793 5064.91343
497.7881 4975.51960
497.9969 5065.20015
498.2056 5134.09382
498.4144 5153.71336
498.6231 5189.32754
498.8318 5211.91663
499.0405 5233.74798
499.2492 5214.66091
499.4578 5277.49259
499.6665 5284.29185
499.8751 5398.24083
500.0837 5390.70430
500.2923 5416.14007
500.5009 5443.84909
500.7095 5558.35102
500.9180 5509.71177
501.1266 5592.75690
501.3351 5604.14361
501.5436 5692.82065
501.7521 5668.55222
501.9606 5751.39256
502.1691 5810.84509
502.3775 5738.61323
502.5860 5818.56593
502.7944 5868.14726
503.0028 5914.90238
503.2112 5928.93097
503.4196 5981.99384
503.6279 6039.64416
503.8363 5972.71654
504.0446 6145.05311
504.2529 6113.59631
504.4612 6184.98850
504.6695 6277.51573
504.8778 6268.13603
505.0860 6290.25410
505.2943 6313.92862
505.5025 6389.49866
505.7107 6415.54882
505.9189 6481.84157
506.1271 6525.48379
506.3353 6544.73469
506.5434 6514.87531
506.7516 6610.69977
506.9597 6668.12481
507.1678 6740.80722
507.3759 6712.09470
507.5840 6765.89484
507.7920 6825.04018
508.0001 6844.25012
508.2081 6964.67069
508.4161 6939.78787
508.6241 7124.10505
508.8321 7094.24567
509.0401 7047.26527
509.2480 7185.05260
509.4560 7182.61552
509.6639 7272.09127
509.8718 7287.53296
510.0797 7420.79429
510.2876 7446.53725
510.4955 7531.13884
510.7033 7574.35098
510.9112 7602.96111
511.1190 7717.91359
511.3268 7669.74537
511.5346 7761.24861
511.7424 7795.53161
511.9501 7892.95348
512.1579 7928.26046
512.3656 7968.52353
512.5733 7923.40678
512.7810 8073.13377
512.9887 8173.25896
513.1964 8196.70821
513.4040 8237.19655
513.6117 8313.01235
513.8193 8390.83516
514.0269 8420.34639
514.2345 8549.22507
514.4421 8502.75666
514.6497 8498.12825
514.8572 8679.70116
515.0647 8713.63600
515.2723 8794.51028
515.4798 8833.01210
515.6873 8943.43857
515.8947 8998.89757
516.1022 8981.18264
516.3097 9060.56190
516.5171 9160.50278
516.7245 9250.01949
516.9319 9317.86870
517.1393 9348.40391
517.3467 9349.28454
517.5540 9365.13582
517.7614 9589.92087
517.9687 9621.74630
518.1760 9628.81179
518.3833 9813.51810
518.5906 9811.38821
518.7978 9973.17774
519.0051 9925.00951
519.2123 10108.09792
519.4196 9907.51986
519.6268 10118.41968
519.8340 10165.21577
520.0411 10225.81516
520.2483 10442.06018
520.4554 10424.71389
520.6626 10681.63157
520.8697 10628.50726
521.0768 10847.14840
521.2839 10794.49513
521.4909 10808.93331
521.6980 10986.71747
521.9050 11156.43264
522.1121 11083.17680
522.3191 11338.74282
522.5261 11328.74873
522.7331 11370.13818
522.9400 11583.65940
523.1470 11591.01161
523.3539 11685.89400
523.5608 11706.84473
523.7677 11723.12608
523.9746 11862.40843
524.1815 12136.54953
524.3884 12032.53320
524.5952 12037.91935
524.8020 12340.62961
525.0089 12268.37728
525.2157 12388.28585
525.4225 12473.44039
525.6292 12529.14514
525.8360 12622.71683
526.0427 12715.20310
526.2494 12890.61162
526.4562 12856.49246
526.6629 13013.59215
526.8695 13000.38275
527.0762 13248.16649
527.2829 13328.38542
527.4895 13411.36912
527.6961 13527.93950
527.9027 13676.29435
528.1093 13748.40333
528.3159 13777.40257
528.5224 13733.22788
528.7290 14124.61519
528.9355 13953.52788
529.1420 14341.59748
529.3485 14216.28227
529.5550 14416.53266
529.7615 14384.60482
529.9680 14546.02572
530.1744 14566.46445
530.3808 14780.33383
530.5872 14727.33240
530.7936 14904.05162
531.0000 14941.11985
531.2064 15131.74478
531.4127 15232.60725
531.6191 15355.42393
531.8254 15438.59194
532.0317 15651.41685
532.2380 15576.46120
532.4443 15728.52288
532.6505 15545.04536
532.8568 15854.73919
533.0630 16175.96309
533.2692 16104.71426
533.4754 16252.18849
533.6816 16404.41400
533.8878 16313.91427
534.0939 16677.08056
534.3001 16711.28164
534.5062 16823.10074
534.7123 16731.35174
534.9184 16857.11750
535.1245 16966.04895
535.3306 16987.49119
535.5366 17366.20157
535.7426 17393.99250
535.9487 17422.52071
536.1547 17449.67678
536.3607 17768.40215
536.5666 17645.87218
536.7726 17798.40489
536.9785 18007.99402
537.1845 18162.34942
537.3904 18032.54916
537.5963 18108.99983
537.8022 18322.82825
538.0080 18487.36206
538.2139 18583.41180
538.4197 18714.72755
538.6256 18686.89566
538.8314 18717.26703
539.0372 18886.12206
539.2430 19266.53225
539.4487 19070.60308
539.6545 19438.23395
539.8602 19324.42833
540.0659 19534.93904
540.2716 19947.64570
540.4773 20024.64932
540.6830 20120.28946
540.8887 20279.99007
541.0943 20032.86168
541.2999 20138.65974
541.5056 20206.71375
541.7112 20435.69713
541.9167 20289.49264
542.1223 20365.61564
542.3279 20754.83210
542.5334 20860.56873
542.7389 21083.03957
542.9444 21138.70336
543.1499 21222.91584
543.3554 21152.50667
543.5609 21540.59675
543.7663 21583.19450
543.9718 21434.16382
544.1772 21630.42066
544.3826 21657.47433
544.5880 22255.68600
544.7934 22071.10258
544.9987 22136.96525
545.2041 22559.62504
545.4094 22486.41016
545.6147 22473.28268
545.8200 22827.08976
546.0253 22748.63208
546.2306 23053.32887
546.4358 22879.04673
546.6411 23253.45637
546.8463 23086.77220
547.0515 23374.65517
547.2567 23524.46408
547.4619 23567.08231
547.6670 23686.33553
547.8722 23814.10830
548.0773 24135.12740
548.2824 24146.94418
548.4876 24260.46309
548.6926 24368.71872
548.8977 24473.84095
549.1028 24624.85817
549.3078 24815.33974
549.5129 24798.25968
549.7179 24925.23375
549.9229 25112.00850
550.1279 25009.71246
550.3328 25398.27357
550.5378 25033.34602
550.7427 25405.68721
550.9476 25591.17174
551.1526 25059.84673
551.3575 25650.80859
551.5623 25737.56055
551.7672 25628.97725
551.9720 25725.35466
552.1769 25914.21833
552.3817 26090.07741
552.5865 25943.58621
552.7913 26207.75370
552.9961 26057.30991
553.2008 26267.84110
553.4056 26581.54895
553.6103 26474.62450
553.8150 26746.94291
554.0197 26831.13490
554.2244 26700.65881
554.4291 26768.13938
554.6337 27199.07297
554.8384 26981.90636
555.0430 27195.07943
555.2476 26972.56763
555.4522 26982.47979
555.6568 27355.76306
555.8613 27503.17585
556.0659 27611.26764
556.2704 27349.92635
556.4750 27708.58711
556.6795 27892.18751
556.8839 27596.46083
557.0884 28097.90597
557.2929 27940.97013
557.4973 27790.44442
557.7018 27922.02642
557.9062 28106.65080
558.1106 28119.77828
558.3150 27989.19979
558.5193 28384.84687
558.7237 28463.83703
558.9280 28212.85846
559.1323 28426.21584
559.3367 28291.17278
559.5410 28547.16888
559.7452 28262.60362
559.9495 28642.39942
560.1537 28658.76270
560.3580 28534.36907
560.5622 28753.11262
560.7664 29006.22107
560.9706 28983.09951
561.1748 29111.91674
561.3789 29087.62783
561.5831 29153.71578
561.7872 29037.43212
561.9913 29313.43687
562.1954 29261.86901
562.3995 29435.76204
562.6036 29425.44028
562.8076 29206.02090
563.0117 29489.82841
563.2157 29401.39712
563.4197 29607.32038
563.6237 29822.11134
563.8277 29515.85810
564.0316 29292.07655
564.2356 29787.97170
564.4395 29711.86919
564.6434 29891.92660
564.8473 30109.31848
565.0512 30049.82499
565.2551 30020.49808
565.4590 30098.40281
565.6628 30337.91275
565.8666 30516.94618
566.0705 30295.76556
566.2743 30308.60632
566.4780 30387.86271
566.6818 30280.75395
566.8856 30817.07600
567.0893 30396.21842
567.2930 30564.95057
567.4967 30294.33198
567.7004 30465.74696
567.9041 30687.37814
568.1078 30686.02648
568.3114 30885.43720
568.5151 30802.02343
568.7187 30478.71060
568.9223 30686.98903
569.1259 30863.68777
569.3295 31187.69691
569.5330 31178.01001
569.7366 31170.49397
569.9401 31246.00258
570.1436 31354.85212
570.3471 31429.84873
570.5506 31404.76111
570.7541 31355.60986
570.9575 31346.08681
571.1609 30998.54651
571.3644 31612.50706
571.5678 31526.43094
571.7712 31936.98723
571.9746 31806.20395
572.1779 31544.43258
572.3813 31444.49171
572.5846 31715.62229
572.7879 31621.21093
572.9912 32258.90744
573.1945 32093.55444
573.3978 31719.88207
573.6010 32043.74784
573.8043 32546.29890
574.0075 31692.13209
574.2107 31858.40667
574.4139 31846.26222
574.6171 31985.21690
574.8203 31828.36297
575.0234 32234.57757
575.2266 31679.47564
575.4297 31844.07089
575.6328 32008.11319
575.8359 32359.97470
576.0390 31694.75349
576.2420 31801.80082
576.4451 31561.18497
576.6481 31922.50809
576.8512 32423.01118
577.0542 31702.61769
577.2571 32160.50254
577.4601 32189.29698
577.6631 32041.31076
577.8660 31887.89742
578.0689 31787.17832
578.2719 31954.00585
578.4748 31753.65307
578.6776 31709.53982
578.8805 31849.19081
579.0834 31332.77501
579.2862 31817.24250
579.4890 32184.56617
579.6918 32003.83293
579.8946 31669.15388
580.0974 32128.45183
580.3002 31770.83553
580.5029 31626.61757
580.7057 32056.01518
580.9084 31544.06395
581.1111 32177.07061
581.3138 31889.41292
581.5164 31692.99224
581.7191 31518.03427
581.9217 31602.94305
582.1244 31676.71088
582.3270 31708.94591
582.5296 31665.93857
582.7322 31903.31863
582.9347 31756.66358
583.1373 31513.56969
583.3398 31759.08019
583.5424 31469.59980
583.7449 31367.59048
583.9474 31286.26564
584.1498 31244.65092
584.3523 31683.36678
584.5548 31312.11101
584.7572 31550.37169
584.9596 31701.75754
585.1620 32265.21518
585.3644 31352.23072
585.5668 31473.30663
585.7691 31802.76336
585.9715 31614.45263
586.1738 31846.20078
586.3761 31825.92589
586.5784 32043.29729
586.7807 31959.55585
586.9830 31984.09051
587.1852 31927.11602
587.3875 31603.51648
587.5897 32163.59497
587.7919 31882.61366
587.9941 31564.46172
588.1963 31688.44575
588.3984 32072.86996
588.6006 31537.36709
588.8027 32092.40758
589.0048 31765.14218
589.2069 31927.79185
589.4090 31935.81989
589.6111 32136.93042
589.8131 32092.07991
590.0152 32243.67055
590.2172 32172.21692
590.4192 32472.28530
590.6212 32180.04016
590.8232 31932.52266
591.0252 32337.09889
591.2271 32469.37719
591.4291 32433.16910
591.6310 32264.27312
591.8329 32249.48678
592.0348 32602.31084
592.2367 32600.13999
592.4385 32967.36127
592.6404 33028.32930
592.8422 33108.03624
593.0440 33202.14041
593.2458 33457.41971
593.4476 33617.75519
593.6494 33635.36772
593.8512 33786.79453
594.0529 34056.06146
594.2546 34021.02071
594.4563 33899.06417
594.6580 33679.70624
594.8597 33611.42696
595.0614 33712.76046
595.2630 34019.23898
595.4647 33974.73662
595.6663 33649.66254
595.8679 34007.01261
596.0695 34480.05243
596.2711 34267.16608
596.4727 34383.49070
596.6742 34645.75358
596.8757 34784.27819
597.0773 34674.44562
597.2788 34320.04463
597.4802 34661.46150
597.6817 35211.44351
597.8832 34900.02938
598.0846 35220.59793
598.2860 35138.43342
598.4875 34845.18478
598.6889 35428.93779
598.8902 35471.04403
599.0916 35590.19485
599.2930 35199.70865
599.4943 35734.06465
599.6956 35736.15358
599.8969 35486.38331
600.0982 35175.17398
600.2995 35309.76649
600.5008 36074.55994
600.7020 35410.46511
600.9032 35946.00894
601.1045 35763.78068
601.3057 35428.81491
601.5068 36150.04807
601.7080 36147.05803
601.9092 35936.01485
602.1103 36453.37272
602.3115 36381.75525
602.5126 36553.80510
602.7137 36474.42584
602.9147 36416.55024
603.1158 36691.98156
603.3169 36897.10611
603.5179 36752.72431
603.7189 36594.27297
603.9199 36772.83536
604.1209 36774.06414
604.3219 36723.88891
604.5229 36753.76877
604.7238 37036.53182
604.9247 37014.24992
605.1257 37190.41619
605.3266 37402.50383
605.5275 37010.52262
605.7283 37131.39373
605.9292 37327.56866
606.1300 36751.82320
606.3309 36943.71788
606.5317 37338.38193
606.7325 37492.32774
606.9332 37428.92263
607.1340 37728.45854
607.3348 37635.68556
607.5355 37080.78842
607.7362 38091.78868
607.9369 37355.09336
608.1376 37652.94993
608.3383 37369.90017
608.5390 38246.38984
608.7396 37866.67595
608.9402 38411.80427
609.1409 38457.24870
609.3415 38062.52320
609.5421 37945.25651
609.7426 38264.88300
609.9432 37784.77768
610.1437 37658.02890
610.3443 38515.98444
610.5448 38197.97586
610.7453 38529.80823
610.9457 38298.28537
611.1462 38477.72839
611.3467 38327.50988
611.5471 38702.16528
611.7475 38170.98363
611.9479 38968.21690
612.1483 38440.72159
612.3487 39010.17978
612.5491 38832.74377
612.7494 39424.91393
612.9497 38808.82350
613.1501 39193.69826
613.3504 38970.85878
613.5506 39662.43735
613.7509 39351.78097
613.9512 39159.76342
614.1514 39378.52744
614.3516 39782.03872
614.5519 39561.45201
614.7521 39727.17364
614.9522 39343.05662
615.1524 39355.03724
615.3526 39848.70011
615.5527 40438.67895
615.7528 40017.61657
615.9529 40079.09659
616.1530 40499.50362
616.3531 40500.32280
616.5532 40326.02018
616.7532 39979.31955
616.9532 40263.49570
617.1533 40063.85970
617.3533 40492.80676
617.5532 40143.58713
617.7532 40334.51925
617.9532 39573.94462
618.1531 40581.85244
618.3530 39985.25866
618.5530 40268.39034
618.7528 40404.37547
618.9527 40482.71027
619.1526 40098.30654
619.3524 40095.41890
619.5523 40426.20682
619.7521 40526.59824
619.9519 40568.92976
620.1517 40588.91793
620.3515 40923.39219
620.5512 41186.43330
620.7510 40966.66577
620.9507 40677.98409
621.1504 40696.78445
621.3501 40795.55798
621.5498 41025.54487
621.7495 41177.93422
621.9492 40776.08180
622.1488 40566.22644
622.3484 40605.91607
622.5480 40534.27813
622.7476 41239.35281
622.9472 40542.81816
623.1468 40790.00798
623.3463 41932.71311
623.5459 41604.89475
623.7454 41327.08779
623.9449 41375.54273
624.1444 41333.74369
624.3439 41746.55275
624.5433 41496.92584
624.7428 41280.76274
624.9422 41398.02943
625.1416 41507.37048
625.3410 41474.99209
625.5404 41314.63614
625.7398 41389.50988
625.9391 41655.88917
626.1385 41236.44469
626.3378 41359.87577
626.5371 42032.81782
626.7364 41378.06173
626.9357 41810.71561
627.1350 41748.12968
627.3342 41400.63035
627.5335 41139.37097
627.7327 41386.49936
627.9319 41387.01135
628.1311 42441.01895
628.3303 41658.34673
628.5294 41909.93970
628.7286 42003.77762
628.9277 42324.55097
629.1268 41988.49978
629.3259 42632.05348
629.5250 42633.93761
629.7241 42539.03474
629.9231 41747.43338
630.1222 42647.63852
630.3212 42432.17173
630.5202 42004.90401
630.7192 42616.59131
630.9182 41999.92744
631.1171 42241.05528
631.3161 42035.43922
631.5150 41927.67510
631.7140 42191.14628
631.9129 42358.50629
632.1118 42750.81518
632.3106 42621.21972
632.5095 42408.92728
632.7083 42378.12583
632.9072 42477.32944
633.1060 42575.65242
633.3048 42592.48672
633.5036 42074.22775
633.7023 42448.49404
633.9011 42860.15624
634.0998 42715.54916
634.2986 42895.38130
634.4973 42593.85886
634.6960 42786.49080
634.8947 42582.16496
635.0933 42890.09754
635.2920 42539.28049
635.4906 42174.78301
635.6892 42976.70614
635.8878 43002.79726
636.0864 42991.18528
636.2850 42720.09565
636.4836 42710.06061
636.6821 42726.69011
636.8806 42967.10116
637.0792 42856.03982
637.2777 42874.41010
637.4761 42907.09568
637.6746 42643.91122
637.8731 42983.91499
638.0715 42514.19287
638.2699 43197.98916
638.4683 42863.65826
638.6667 42205.50255
638.8651 43045.43597
639.0635 43204.68602
639.2618 43211.26000
639.4602 43143.22648
639.6585 43009.55556
639.8568 43189.55153
640.0551 43245.21532
640.2534 43106.42448
640.4516 42926.79714
640.6499 43114.28868
640.8481 43778.81358
641.0463 43550.87466
641.2445 43866.73288
641.4427 43638.13860
641.6409 43425.78473
641.8390 43703.91936
642.0372 44019.69566
642.2353 43812.35931
642.4334 43281.56677
642.6315 43545.93905
642.8296 43508.72746
643.0277 43340.75306
643.2257 43971.58888
643.4237 44043.00155
643.6218 43927.55755
643.8198 43659.62180
644.0178 43797.26578
644.2157 43693.90479
644.4137 43624.64249
644.6116 44364.26640
644.8096 44649.20030
645.0075 43484.17231
645.2054 44174.82930
645.4033 44030.50894
645.6011 43907.75369
645.7990 43967.14478
645.9968 44195.71858
646.1947 44110.13396
646.3925 44299.05908
646.5903 44133.13265
646.7881 44336.41403
646.9858 44107.71736
647.1836 43920.16438
647.3813 43740.98760
647.5790 44252.48827
647.7767 44804.41585
647.9744 43933.78337
648.1721 43886.80297
648.3698 44623.19109
648.5674 43785.14180
648.7650 44238.80784
648.9627 43941.72949
649.1603 44745.57771
649.3578 44426.27890
649.5554 44517.49543
649.7530 44995.71661
649.9505 43886.53673
650.1480 44565.41790
650.3455 44861.14458
650.5430 44228.85471
650.7405 44428.79790
650.9380 44192.13463
651.1354 44571.78708
651.3329 44197.95086
651.5303 44661.01708
651.7277 44671.15452
651.9251 44749.65316
652.1225 44597.89868
652.3198 44414.19588
652.5172 44683.91337
652.7145 44930.52976
652.9118 44716.90614
653.1091 44798.00571
653.3064 45077.12337
653.5037 44742.81295
653.7009 44427.34384
653.8982 44800.74998
654.0954 45271.61896
654.2926 45364.78106
654.4898 45231.17158
654.6870 45227.73099
654.8841 45762.39419
655.0813 45239.13818
655.2784 45218.22841
655.4755 45771.63053
655.6726 45989.69824
655.8697 45250.58632
656.0668 45655.81790
656.2639 45283.39478
656.4609 45336.66245
656.6579 45446.65885
656.8550 45614.65373
657.0520 45501.01194
657.2490 44911.85229
657.4459 45573.73531
657.6429 45671.56678
657.8398 45489.25660
658.0367 45928.11582
658.2337 45700.54553
658.4305 45911.85495
658.6274 45935.42707
658.8243 45870.38358
659.0211 46153.63814
659.2180 46079.17400
659.4148 46238.73124
659.6116 46441.66447
659.8084 46362.63335
660.0052 46855.14936
660.2019 46494.19486
660.3987 46266.15354
660.5954 46352.92598
660.7921 46302.23875
660.9888 46048.29063
661.1855 46366.11490
661.3822 46556.18688
661.5788 46002.70284
661.7755 46288.94744
661.9721 45928.60733
662.1687 46421.12334
662.3653 46318.99114
662.5619 46455.87737
662.7584 45979.84751
662.9550 46170.49292
663.1515 46537.40700
663.3480 46155.29700
663.5445 46751.19446
663.7410 46043.39598
663.9375 46271.72402
664.1340 46387.06562
664.3304 46663.68476
664.5268 46294.16976
664.7233 46773.90644
664.9197 46670.09490
665.1160 46685.96666
665.3124 46538.63579
665.5088 46608.32816
665.7051 46676.05449
665.9014 46651.68366
666.0977 46382.19145
666.2940 46328.49371
666.4903 46613.22281
666.6866 46687.78935
666.8828 46414.18073
667.0791 46434.72185
667.2753 46714.59726
667.4715 46550.86216
667.6677 47091.99694
667.8639 47374.45279
668.0600 46590.06028
668.2562 46842.51339
668.4523 46747.87675
668.6484 46840.64974
668.8445 46419.66928
669.0406 47484.65399
669.2367 47318.01077
669.4327 47451.47690
669.6287 47188.76347
669.8248 46994.80035
670.0208 47230.93114
670.2168 47164.39264
670.4128 47251.28795
670.6087 47202.42342
670.8047 47119.00965
671.0006 47857.24095
671.1965 46756.92878
671.3924 47474.00455
671.5883 46954.66016
671.7842 47036.70179
671.9801 46511.66404
672.1759 46934.28287
672.3717 46683.09950
672.5675 47422.14998
672.7633 47222.16584
672.9591 47444.94388
673.1549 47878.31454
673.3506 47299.96817
673.5464 46906.43049
673.7421 47447.42192
673.9378 47271.84956
674.1335 47032.42153
674.3292 47378.34393
674.5249 46898.15670
674.7205 46070.59301
674.9161 46553.93411
675.1118 46489.93509
675.3074 46525.11919
675.5030 46545.43504
675.6985 47062.81339
675.8941 46946.09965
676.0896 47004.50772
676.2852 47163.20482
676.4807 47009.25900
676.6762 47274.69623
676.8717 47535.46410
677.0671 47302.87628
677.2626 47868.70957
677.4580 47357.78233
677.6534 47441.91288
677.8489 47033.28168
678.0442 47114.62700
678.2396 46382.29385
678.4350 46743.37122
678.6303 46938.76792
678.8257 46674.57995
679.0210 47030.37356
679.2163 46693.89230
679.4116 46879.23347
679.6069 46653.48587
679.8021 46242.86814
679.9974 46223.53531
680.1926 46603.78167
680.3878 46478.38455
680.5830 46493.25280
680.7782 46586.10770
680.9734 46354.52340
681.1685 46340.51529
681.3636 46264.71997
681.5588 46337.05422
681.7539 46212.72204
681.9490 46290.07382
682.1441 46236.68327
682.3391 45829.50613
682.5342 46591.92393
682.7292 46691.70097
682.9242 46746.25886
683.1192 46505.04910
683.3142 47036.78370
683.5092 46931.62051
683.7041 47094.41355
683.8991 46970.90055
684.0940 46749.28985
684.2889 46227.69269
684.4838 46661.96446
684.6787 46268.07863
684.8736 45468.14204
685.0684 46275.47180
685.2633 45913.28853
685.4581 46163.55031
685.6529 46463.98733
685.8477 46693.25743
686.0425 46699.60613
686.2372 46344.42691
686.4320 46234.49195
686.6267 46230.96944
686.8214 46041.40945
687.0161 45948.24735
687.2108 46079.11256
687.4055 45898.09260
687.6002 46181.94107
687.7948 46147.12560
687.9894 46558.80828
688.1841 46087.48875
688.3787 46221.97886
688.5732 45835.69099
688.7678 46127.05551
688.9624 45868.04890
689.1569 45886.19390
689.3514 45622.16977
689.5459 45279.81083
689.7404 45446.29021
689.9349 45539.34991
690.1294 45623.45999
690.3238 45641.76883
690.5182 45762.06652
690.7127 45870.28118
690.9071 45700.91417
691.1015 45410.20500
691.2958 45606.31849
691.4902 45852.44338
691.6845 46734.58544
691.8789 45943.84422
692.0732 45904.54370
692.2675 45739.53886
692.4618 45918.51085
692.6560 45816.64488
692.8503 46324.00866
693.0445 46248.23382
693.2387 45464.78337
693.4329 45984.20969
693.6271 45841.60962
693.8213 45916.40144
694.0155 46115.05441
694.2096 45869.17528
694.4038 45481.22856
694.5979 45587.43622
694.7920 45540.70157
694.9861 45467.15902
695.1801 45384.27772
695.3742 45306.08627
695.5682 45312.84457
695.7623 45185.19468
695.9563 44973.72143
696.1503 45385.05595
696.3443 44700.93199
696.5382 45202.02898
696.7322 45139.77073
696.9261 45537.32242
697.1201 44972.71792
697.3140 45264.34867
697.5079 45502.44552
697.7017 44778.22233
697.8956 44873.20712
698.0894 44543.05408
698.2833 45019.84168
698.4771 45110.11614
698.6709 45506.29570
698.8647 44707.32165
699.0585 45448.07195
699.2522 44496.48327
699.4460 44845.70290
699.6397 44871.93738
699.8334 44671.78939
700.0271 44538.40519
700.2208 44733.61757
700.4144 45053.83796
700.6081 44994.85646
700.8017 44662.94217
700.9954 45163.03566
701.1890 44934.15467
701.3826 44369.05865
701.5761 44451.75563
701.7697 44603.85827
701.9632 44288.12293
702.1568 44560.87140
702.3503 44390.97192
702.5438 44102.98655
702.7373 43540.14330
702.9308 44408.78925
703.1242 44415.60898
703.3177 44181.03464
703.5111 44534.00205
703.7045 44662.08202
703.8979 44789.62951
704.0913 44607.60605
704.2847 44776.44060
704.4780 44967.20888
704.6713 44012.11818
704.8647 44281.13935
705.0580 44053.85578
705.2513 43413.10780
705.4445 44040.85118
705.6378 44036.91908
705.8311 43207.88085
706.0243 43269.85238
706.2175 43866.24136
706.4107 43668.63286
706.6039 43635.04617
706.7971 43610.94158
706.9902 43901.48691
707.1834 43734.51601
707.3765 43297.52044
707.5696 43378.29233
707.7627 43523.96435
707.9558 43562.22040
708.1489 43018.13655
708.3419 42546.98085
708.5349 42829.74390
708.7280 42746.35061
708.9210 43430.12642
709.1140 43250.15092
709.3069 42976.13271
709.4999 42827.57305
709.6929 43121.41561
709.8858 42795.58378
710.0787 42926.81762
710.2716 42229.87337
710.4645 42833.94224
710.6574 42846.02525
710.8502 43198.17348
711.0431 42626.11437
711.2359 42429.42745
711.4287 42367.10776
711.6215 42625.64333
711.8143 42581.38673
712.0071 42541.59470
712.1998 42400.85828
712.3925 42602.29649
712.5853 42817.06697
712.7780 42828.94519
712.9707 42470.87834
713.1633 42568.44357
713.3560 42563.93804
713.5487 42376.50794
713.7413 42545.54728
713.9339 42390.16789
714.1265 42155.61403
714.3191 42195.83613
714.5117 41758.69720
714.7042 42166.09963
714.8968 42305.73014
715.0893 42848.33946
715.2818 42754.37865
715.4743 42709.17998
715.6668 42313.59434
715.8592 42721.95930
716.0517 42354.69707
716.2441 42460.76137
716.4366 42131.63231
716.6290 42276.91522
716.8214 42336.10151
717.0137 42427.17468
717.2061 42279.92573
717.3984 42231.96230
717.5908 41873.54729
717.7831 41742.21105
717.9754 42313.57386
718.1677 41344.06545
718.3600 41980.32838
718.5522 41623.10119
718.7445 41611.85784
718.9367 41233.72089
719.1289 41429.21999
719.3211 41207.71169
719.5133 41331.55236
719.7054 41193.31447
719.8976 41554.61712
720.0897 41389.61227
720.2818 41361.80086
720.4740 41378.71708
720.6660 41514.14925
720.8581 41487.52566
721.0502 41208.55136
721.2422 40943.74900
721.4343 41163.29125
721.6263 41282.42159
721.8183 41158.00749
722.0103 41633.73015
722.2022 41388.79309
722.3942 41597.52206
722.5861 41198.80303
722.7781 41718.04502
722.9700 41281.23377
723.1619 41051.51311
723.3538 40868.34279
723.5456 41074.51180
723.7375 40803.27882
723.9293 41090.15828
724.1211 40675.42413
724.3129 40730.63737
724.5047 40205.76346
724.6965 40273.94034
724.8883 40546.99601
725.0800 40329.62461
725.2718 40759.59565
725.4635 40359.38160
725.6552 40280.55528
725.8469 40409.72067
726.0385 40715.74864
726.2302 40425.01899
726.4218 39701.45115
726.6135 39833.07411
726.8051 39638.80379
726.9967 40052.69827
727.1882 40303.92260
727.3798 40589.79856
727.5714 40321.67849
727.7629 40681.54756
727.9544 40674.70734
728.1459 40053.74274
728.3374 39845.05472
728.5289 40550.88715
728.7204 40058.24827
728.9118 40580.33694
729.1032 40801.29229
729.2946 40519.79899
729.4860 39786.42138
729.6774 40137.56610
729.8688 40078.74844
730.0602 39834.79440
730.2515 40097.09824
730.4428 40345.66020
730.6341 40057.18333
730.8254 39866.35360
731.0167 40270.25400
731.2080 40305.08994
731.3992 40140.76093
731.5905 39947.14597
731.7817 39991.32065
731.9729 39408.20251
732.1641 39691.14987
732.3553 39197.26173
732.5464 39636.24383
732.7376 39527.82436
732.9287 39579.76085
733.1198 39516.35574
733.3109 39653.18053
733.5020 39383.58592
733.6931 39952.32733
733.8841 39759.01956
734.0752 40070.20841
734.2662 39627.08941
734.4572 39465.42276
734.6482 39000.84105
734.8392 38995.20913
735.0302 38874.54281
735.2211 38667.69797
735.4120 38665.62952
735.6030 39185.32207
735.7939 39046.14211
735.9848 39066.41700
736.1756 38636.81460
736.3665 38882.95996
736.5574 38454.13579
736.7482 38512.33906
736.9390 38331.95397
737.1298 38597.18640
737.3206 38717.64793
737.5114 38927.64664
737.7021 38400.11037
737.8929 38470.23282
738.0836 38526.53148
738.2743 38774.52002
738.4650 38790.43274
738.6557 38451.45295
738.8463 38168.71038
739.0370 38129.88090
739.2276 37876.15805
739.4182 37883.26450
739.6088 38246.73799
739.7994 37967.59985
739.9900 38153.20726
740.1806 38077.08426
740.3711 38230.74336
740.5617 38519.30215
740.7522 38324.99088
740.9427 38233.05756
741.1332 38259.37396
741.3236 37849.55493
741.5141 38009.39889
741.7045 38338.20028
741.8949 38326.11726
742.0854 38128.85691
742.2758 38201.68268
742.4661 37712.89398
742.6565 37371.90718
742.8469 37578.13763
743.0372 37920.18938
743.2275 37542.09338
743.4178 37849.02246
743.6081 37911.64935
743.7984 37870.62853
743.9886 37825.16363
744.1789 37645.18813
744.3691 37425.95308
744.5593 37438.44569
744.7495 37146.38486
744.9397 37353.72122
745.1299 37056.13088
745.3200 36624.19379
745.5102 36926.26918
745.7003 37016.11357
745.8904 37162.15422
746.0805 37169.01492
746.2706 37093.28103
746.4607 37134.07657
746.6507 37043.14676
746.8408 36652.86535
747.0308 37112.83913
747.2208 36715.36936
747.4108 36840.27497
747.6007 37034.75009
747.7907 37440.96469
747.9806 37154.26954
748.1706 37117.42658
748.3605 36788.27705
748.5504 36729.95090
748.7403 37238.09290
748.9302 36655.22052
749.1200 36678.97695
749.3098 36652.84487
749.4997 36368.85305
749.6895 36534.08317
749.8793 36374.64880
750.0691 36828.86779
750.2588 36495.80663
750.4486 36352.96081
750.6383 36495.51991
750.8280 35920.30693
751.0177 35807.32050
751.2074 35950.71927
751.3971 36083.46860
751.5868 36058.27859
751.7764 35864.21307
751.9660 35575.18324
752.1557 35694.86653
752.3453 35918.50472
752.5348 36139.48055
752.7244 36374.13681
752.9140 36428.14174
753.1035 36090.92321
753.2930 36179.02682
753.4825 35857.14758
753.6720 36157.91227
753.8615 36138.70232
754.0510 35709.96006
754.2404 35674.38684
754.4299 35743.19859
754.6193 35624.47785
754.8087 35479.78885
754.9981 35545.22145
755.1875 35270.69124
755.3768 35121.18952
755.5662 35297.76539
755.7555 35356.82881
755.9448 35361.02715
756.1341 35327.85005
756.3234 34893.86499
756.5127 34914.50852
756.7019 35175.76789
756.8912 35294.46816
757.0804 35151.25371
757.2696 35195.18264
757.4588 34903.46997
757.6480 34709.03581
757.8371 34359.01748
758.0263 34412.03939
758.2154 34540.67230
758.4045 34286.84706
758.5936 34098.65921
758.7827 34475.34210
758.9718 34733.09945
759.1609 34336.30550
759.3499 34269.54172
759.5389 33785.83198
759.7280 34150.71857
759.9170 34262.57863
760.1059 34261.98472
760.2949 34162.33056
760.4839 34563.24092
760.6728 34335.34296
760.8617 34226.00190
761.0506 33863.59335
761.2395 33570.48807
761.4284 33899.39185
761.6173 33750.09493
761.8061 33776.34989
761.9950 33734.20269
762.1838 33469.83040
762.3726 33985.18126
762.5614 33571.69637
762.7502 33925.50345
762.9389 33215.26789
763.1277 33332.41170
763.3164 33784.27552
763.5051 33624.75924
763.6938 33897.42580
763.8825 33520.55859
764.0712 34188.97463
764.2598 33748.47703
764.4484 33900.60015
764.6371 33955.50619
764.8257 33688.30771
765.0143 33912.25309
765.2029 33482.75309
765.3914 33550.27462
765.5800 33850.01532
765.7685 33315.12684
765.9570 33401.55112
766.1455 32927.99931
766.3340 32646.95656
766.5225 32899.86022
766.7110 32849.19347
766.8994 32592.03004
767.0878 32315.22658
767.2762 32600.69295
767.4646 32523.85316
767.6530 32593.77081
767.8414 32726.66350
768.0298 32444.14621
768.2181 32261.30356
768.4064 32305.51921
768.5947 32373.98280
768.7830 32279.79672
768.9713 32152.47450
769.1596 31928.91824
769.3478 31819.55670
769.5360 32009.26005
769.7243 31953.06379
769.9125 31717.52690
770.1007 31437.32382
770.2888 31475.19076
770.4770 31618.44617
770.6651 31614.02256
770.8533 31320.75344
771.0414 31179.05448
771.2295 31453.66661
771.4176 31650.96792
771.6056 31731.86268
771.7937 31468.02287
771.9817 31134.26540
772.1698 31738.21139
772.3578 31669.74779
772.5458 31293.65881
772.7337 30794.22067
772.9217 31154.56077
773.1096 31011.85831
773.2976 31256.05810
773.4855 31530.97743
773.6734 30808.51549
773.8613 30869.40160
774.0492 31048.55791
774.2370 30856.19220
774.4249 30963.85392
774.6127 31210.44984
774.8005 30968.42089
774.9883 30989.94504
775.1761 31133.50765
775.3639 30642.87578
775.5516 30743.32865
775.7394 30483.68717
775.9271 30558.82714
776.1148 30545.12623
776.3025 29849.28789
776.4902 29978.67855
776.6778 29951.64537
776.8655 30372.25719
777.0531 30543.93841
777.2407 30499.62037
777.4283 30144.76882
777.6159 30261.50304
777.8035 30019.22834
777.9911 29775.99109
778.1786 30094.49119
778.3661 29583.46155
778.5536 29892.88914
778.7411 29977.10162
778.9286 30294.18862
779.1161 30015.43959
779.3036 29541.21195
779.4910 29573.42650
779.6784 29724.77139
779.8658 29960.18540
780.0532 29389.45747
780.2406 29685.28655
780.4280 29441.02532
780.6153 29625.03531
780.8026 29583.93258
780.9900 29770.23630
781.1773 29228.48712
781.3646 29579.67280
781.5518 29432.38289
781.7391 29262.34005
781.9263 29375.79751
782.1136 29239.79191
782.3008 28979.26980
782.4880 29061.20903
782.6752 28883.71158
782.8623 28861.18393
783.0495 29188.71557
783.2366 28610.30775
783.4237 28769.04581
783.6108 29063.27748
783.7979 28809.77991
783.9850 28892.39497
784.1721 29116.17652
784.3591 28612.70388
784.5462 28478.21377
784.7332 28588.29209
784.9202 28760.87442
785.1072 28292.54492
785.2941 28286.13478
785.4811 28113.36814
785.6681 28279.78608
785.8550 28359.86166
786.0419 28104.17276
786.2288 27951.92676
786.4157 27826.52963
786.6025 27881.31280
786.7894 28049.88111
786.9762 27999.97211
787.1631 27429.30562
787.3499 27757.26733
787.5367 27859.39953
787.7234 27499.75574
787.9102 27838.22354
788.0970 27893.96925
788.2837 27943.24337
788.4704 27359.98187
788.6571 27079.86071
788.8438 27004.51594
789.0305 26993.21115
789.2171 26965.31782
789.4038 26875.53487
789.5904 27069.92806
789.7770 27110.08873
789.9636 27119.91898
790.1502 27207.55156
790.3368 27157.45824
790.5233 27317.38412
790.7099 26949.81469
790.8964 26508.19071
791.0829 26445.35903
791.2694 26322.48090
791.4559 26427.50074
791.6423 26412.10002
791.8288 26510.48444
792.0152 26714.68740
792.2016 26706.59792
792.3880 26961.30380
792.5744 26474.11251
792.7608 26006.33597
792.9471 26058.96877
793.1335 26618.78102
793.3198 26239.27193
793.5061 26332.78219
793.6924 25908.27923
793.8787 25785.23726
794.0650 25781.07989
794.2512 26145.74120
794.4375 26206.25868
794.6237 26317.95489
794.8099 26294.71045
794.9961 25820.35993
795.1823 25752.53120
795.3684 25845.57042
795.5546 25490.63696
795.7407 25473.33162
795.9268 25344.71918
796.1129 25638.29550
796.2990 25778.90904
796.4851 26099.62095
796.6712 25840.63482
796.8572 25760.96883
797.0432 25476.40357
797.2292 25741.73841
797.4152 25701.10671
797.6012 25145.59518
797.7872 24919.15128
797.9731 25005.88275
798.1591 24817.10100
798.3450 24712.01972
798.5309 24973.83204
798.7168 24919.25368
798.9027 24886.11754
799.0885 25086.38841
799.2744 24970.30954
799.4602 25188.27485
799.6460 25138.07914
799.8318 25611.05752
800.0176 25050.71279
800.2034 25171.42007
800.3892 24653.16110
800.5749 24600.42590
800.7606 24488.89352
800.9463 24707.20699
801.1320 24561.00250
801.3177 24636.18344
801.5034 24542.38647
801.6890 24985.42355
801.8747 24498.25274
802.0603 24261.77379
802.2459 24196.17735
802.4315 24293.80402
802.6171 23900.61450
802.8026 24264.00607
802.9882 24153.29288
803.1737 23970.90079
803.3592 24204.30779
803.5447 24113.91045
803.7302 24369.94750
803.9157 24252.45553
804.1012 24330.99513
804.2866 23785.55962
804.4720 23880.74920
804.6574 23777.98213
804.8428 23653.21987
805.0282 23608.86087
805.2136 23431.62966
805.3989 23739.93087
805.5843 23564.89098
805.7696 23456.63535
805.9549 23352.70094
806.1402 23171.78338
806.3255 23049.97020
806.5107 23252.00232
806.6960 23473.10102
806.8812 23038.66541
807.0664 23146.83912
807.2516 22914.47659
807.4368 22744.47470
807.6220 22620.96171
807.8072 22690.75648
807.9923 22837.94400
808.1774 22703.80204
808.3625 22993.93778
808.5476 23003.95234
808.7327 23164.26734
808.9178 22744.51566
809.1028 22658.97201
809.2879 22618.56558
809.4729 22546.64092
809.6579 22405.10580
809.8429 22508.65110
810.0279 22462.40797
810.2128 22240.75631
810.3978 22406.29362
810.5827 22553.74737
810.7676 22671.17790
810.9525 22789.61193
811.1374 22475.61736
811.3223 22530.83060
811.5072 22234.59192
811.6920 22315.79388
811.8768 22327.52874
812.0616 22293.18431
812.2464 22285.93450
812.4312 22083.28799
812.6160 22233.30170
812.8007 22378.64604
812.9855 22359.86617
813.1702 22136.65806
813.3549 22180.09547
813.5396 21761.57258
813.7243 21902.47283
813.9089 21874.12894
814.0936 21928.70731
814.2782 21939.29531
814.4628 21788.64673
814.6474 21813.85722
814.8320 21817.17493
815.0166 21530.52075
815.2012 21626.79576
815.3857 21452.71841
815.5702 21404.12011
815.7547 21461.85235
815.9392 21586.73749
816.1237 21365.92550
816.3082 21168.07124
816.4926 21351.44636
816.6771 21478.80953
816.8615 21141.77532
817.0459 21290.96984
817.2303 21213.57710
817.4147 21316.50801
817.5990 21342.25098
817.7834 21010.86915
817.9677 21055.88351
818.1520 21279.25546
818.3363 21171.55278
818.5206 20928.82753
818.7049 20798.00328
818.8891 20890.69435
819.0734 20994.81308
819.2576 21100.34491
819.4418 20701.25724
819.6260 20613.97281
819.8102 20690.46444
819.9944 20690.46444
820.1785 20474.89525
820.3627 20645.55249
820.5468 20601.15253
820.7309 20440.07978
820.9150 20216.11392
821.0991 20019.85708
821.2831 20373.99183
821.4672 20257.52385
821.6512 20118.05718
821.8352 20128.05127
822.0192 20448.53790
822.2032 20183.75602
822.3872 20284.10648
822.5711 20034.54101
822.7551 19927.57560
822.9390 20012.17719
823.1229 20118.30293
823.3068 20078.44946
823.4907 19836.15428
823.6745 19848.76977
823.8584 19717.94552
824.0422 19821.26555
824.2261 19922.39424
824.4099 19943.87744
824.5937 20071.40445
824.7774 20009.35100
824.9612 19949.01784
825.1449 19616.96018
825.3287 19650.62879
825.5124 19615.13749
825.6961 19792.61446
825.8798 19728.82024
826.0634 19810.28843
826.2471 19658.41107
826.4307 19961.73572
826.6144 19793.04454
826.7980 19882.19262
826.9816 19636.94836
827.1652 19803.36630
827.3487 19723.06545
827.5323 19365.14195
827.7158 19231.36863
827.8993 19535.51247
828.0828 19308.12650
828.2663 19029.99186
828.4498 19213.83802
828.6333 19403.07033
828.8167 19102.22372
829.0001 19214.06329
829.1836 19339.35802
829.3670 19256.06713
829.5504 19493.69295
829.7337 19364.54804
829.9171 19281.25715
830.1004 19326.10766
830.2837 19250.20994
830.4671 19069.74293
830.6504 18898.34843
830.8336 19017.68357
831.0169 18857.12282
831.2002 19221.51790
831.3834 19108.18331
831.5666 18819.17396
831.7498 18896.19806
831.9330 19234.50202
832.1162 19114.30673
832.2993 18999.74336
832.4825 19058.08999
832.6656 18884.62704
832.8487 18462.25396
833.0318 18658.14218
833.2149 18558.69281
833.3980 18541.34652
833.5811 18692.32277
833.7641 18600.49185
833.9471 18461.80341
834.1301 18247.15581
834.3131 18075.96610
834.4961 18314.71830
834.6791 18353.62970
834.8620 18722.91943
835.0450 18548.59633
835.2279 18688.18588
835.4108 18595.82249
835.5937 18685.31872
835.7766 18404.64460
835.9594 18376.32120
836.1423 18411.50530
836.3251 18728.85854
836.5079 18636.33131
836.6907 18172.22063
836.8735 18103.32696
837.0563 18123.41753
837.2390 18208.83831
837.4218 18076.92864
837.6045 18385.57801
837.7872 18415.72411
837.9699 18279.30892
838.1526 18070.84618
838.3352 18023.10803
838.5179 17944.54794
838.7005 18053.66372
838.8831 18131.40461
839.0658 18178.75365
839.2483 18165.62617
839.4309 18179.51140
839.6135 18183.52542
839.7960 17732.93133
839.9786 17834.44914
840.1611 17671.32843
840.3436 17884.87013
840.5261 17633.27717
840.7085 17590.98662
840.8910 17479.22896
841.0734 17474.35480
841.2559 17430.73306
841.4383 17619.49434
841.6207 17806.86300
841.8030 17659.38878
841.9854 17591.80581
842.1678 17451.86810
842.3501 17509.21123
842.5324 17386.70174
842.7147 17591.88773
842.8970 17749.58132
843.0793 17667.10962
843.2615 17617.03678
843.4438 17695.88358
843.6260 17652.58952
843.8082 17570.48645
843.9904 17621.97239
844.1726 17408.69692
844.3548 17320.83906
844.5369 17201.79064
844.7191 17219.62845
844.9012 17129.10823
845.0833 17149.21928
845.2654 17438.04431
845.4475 17553.59071
845.6296 17233.02216
845.8116 17146.37260
845.9936 17113.54366
846.1757 17192.32902
846.3577 17178.25948
846.5397 17230.66700
846.7216 17084.38059
846.9036 16951.71317
847.0855 16753.98179
847.2675 16932.35987
847.4494 16888.59478
847.6313 17164.78384
847.8132 17202.81462
847.9950 17077.58133
848.1769 17047.04612
848.3587 17243.71256
848.5406 16977.64046
848.7224 16913.29328
848.9042 16802.10906
849.0860 16912.14642
849.2677 16739.25690
849.4495 16633.11067
849.6312 16546.44064
849.8129 16636.69462
849.9946 16771.65576
850.1763 16726.23181
850.3580 16525.48992
850.5397 16476.46155
850.7213 16186.10054
850.9029 16245.73739
851.0845 16351.76073
851.2661 16354.54597
851.4477 16336.36000
851.6293 16395.38246
851.8109 16356.47106
851.9924 16495.40526
852.1739 16551.19192
852.3554 16450.18611
852.5369 16311.64102
852.7184 16137.70703
852.8999 16093.51187
853.0813 16107.06942
853.2628 16141.39338
853.4442 16241.51857
853.6256 16197.30293
853.8070 16333.59525
853.9883 16319.79194
854.1697 16162.71273
854.3510 15997.29830
854.5324 16042.33313
854.7137 16064.49215
854.8950 15941.04060
855.0763 15973.43946
855.2575 15994.30826
855.4388 16017.18407
855.6200 16014.99275
855.8013 16023.67613
855.9825 15936.26883
856.1637 15933.95462
856.3449 15820.88627
856.5260 15903.31701
856.7072 15884.39378
856.8883 16101.86758
857.0694 16005.89977
857.2505 15978.53890
857.4316 15945.54613
857.6127 15818.53110
857.7938 15950.82989
857.9748 15915.99394
858.1558 15755.00311
858.3368 15677.67181
858.5178 15633.21041
858.6988 15778.96435
858.8798 15672.16278
859.0607 15805.17835
859.2417 15728.31808
859.4226 15647.54619
859.6035 15682.68934
859.7844 15774.52026
859.9653 15697.84431
860.1462 15509.39022
860.3270 15448.31979
860.5078 15381.92465
860.6887 15427.53291
860.8695 15347.37541
861.0503 15451.08455
861.2310 15213.52018
861.4118 15180.54788
861.5925 15085.09206
861.7733 15032.56166
861.9540 14929.65123
862.1347 14796.90189
862.3154 14722.11007
862.4960 14838.96717
862.6767 14849.69853
862.8573 14782.40228
863.0380 14774.61999
863.2186 14846.13506
863.3992 14784.96224
863.5797 14774.37424
863.7603 14817.99597
863.9409 14680.47487
864.1214 14786.00670
864.3019 14856.21107
864.4824 14846.95425
864.6629 14716.17097
864.8434 14490.95584
865.0238 14653.78984
865.2043 14730.69106
865.3847 14355.01168
865.5651 14273.80972
865.7455 14502.73166
865.9259 14461.13742
866.1063 14373.44340
866.2866 14326.09436
866.4670 14349.83032
866.6473 14235.36934
866.8276 14220.25533
867.0079 14154.90465
867.1882 14131.00485
867.3684 13984.75941
867.5487 13971.16089
867.7289 13973.20886
867.9091 14032.37468
868.0893 13844.88314
868.2695 13654.38109
868.4497 13558.45423
868.6299 13675.24989
868.8100 13682.95025
868.9901 13630.97280
869.1703 13732.24486
869.3504 13742.48470
869.5304 13714.28417
869.7105 13786.18836
869.8906 13742.64854
870.0706 13628.53572
870.2506 13799.07008
870.4306 13781.64187
870.6106 13753.05222
870.7906 13832.65677
870.9706 13685.75597
871.1505 13524.47843
871.3305 13567.09666
871.5104 13374.66952
871.6903 13329.40941
871.8702 13443.29695
872.0500 13425.52058
872.2299 13439.85636
872.4097 13252.48770
872.5896 13351.85514
872.7694 13398.05732
872.9492 13245.03309
873.1290 12964.25658
873.3087 13021.90690
873.4885 13302.00758
873.6682 13282.18325
873.8480 13164.32265
874.0277 13194.32539
874.2074 12955.28647
874.3870 13070.89431
874.5667 13115.21235
874.7463 13216.19769
874.9260 13040.52293
875.1056 12980.12834
875.2852 12908.08080
875.4648 12849.77513
875.6444 12805.72332
875.8239 12976.87207
876.0035 12845.98638
876.1830 12833.67809
876.3625 12731.03390
876.5420 12752.78333
876.7215 12775.20858
876.9010 12530.39440
877.0804 12600.66021
877.2599 12537.43941
877.4393 12717.02579
877.6187 12730.23519
877.7981 12746.59846
877.9775 12547.39254
878.1568 12825.87533
878.3362 12645.63360
878.5155 12607.19323
878.6948 12365.30764
878.8741 12369.07590
879.0534 12306.01894
879.2327 12255.16788
879.4119 12220.16809
879.5912 12114.34955
879.7704 12292.21563
879.9496 12371.49250
880.1288 12250.62139
880.3080 12006.36015
880.4872 12180.23270
880.6663 12161.49379
880.8455 12193.07347
881.0246 12251.52249
881.2037 12229.50683
881.3828 12121.82463
881.5619 12038.84094
881.7409 12022.90774
881.9200 11875.49495
882.0990 12001.93654
882.2780 11949.59046
882.4570 11902.85581
882.6360 11912.68606
882.8150 11709.09749
882.9940 11656.60805
883.1729 11679.27907
883.3518 11940.02645
883.5308 11859.47984
883.7096 11860.25806
883.8885 11678.70563
884.0674 11633.46600
884.2463 11601.59961
884.4251 11604.69204
884.6039 11473.70396
884.7827 11550.72807
884.9615 11489.18661
885.1403 11512.69729
885.3191 11569.11883
885.4978 11327.90907
885.6765 11389.51197
885.8553 11510.19877
886.0340 11462.62445
886.2127 11426.66212
886.3913 11320.70022
886.5700 11279.51557
886.7486 11174.20901
886.9273 11123.25555
887.1059 11017.15029
887.2845 11042.70894
887.4630 11146.64335
887.6416 11170.91178
887.8202 11209.98703
887.9987 11139.76218
888.1772 11172.73448
888.3557 11156.24833
888.5342 11042.25839
888.7127 11134.94945
888.8912 11095.97661
889.0696 11071.03235
889.2481 10884.93343
889.4265 10787.20436
889.6049 10761.37947
889.7833 10787.20436
889.9616 10709.40203
890.1400 10705.57232
890.3183 10403.96797
890.4967 10535.01749
890.6750 10724.86419
890.8533 10668.97512
891.0316 10626.68457
891.2098 10547.05954
891.3881 10465.09983
891.5663 10454.71663
891.7445 10444.31295
891.9227 10330.28205
892.1009 10333.96839
892.2791 10489.32730
892.4573 10524.24517
892.6354 10389.07923
892.8136 10413.61390
892.9917 10390.22610
893.1698 10238.47161
893.3479 10400.89601
893.5259 10556.93075
893.7040 10410.41907
893.8820 10317.97376
894.0601 10338.10529
894.2381 10391.08624
894.4161 10435.95724
894.5941 10454.57327
894.7720 10423.17791
894.9500 10398.00838
895.1279 10453.77457
895.3058 10358.68738
895.4838 10353.17834
895.6616 10268.45387
895.8395 10206.15466
896.0174 10148.64770
896.1952 10163.74123
896.3731 10223.19376
896.5509 10178.42517
896.7287 10178.77332
896.9065 10154.70969
897.0842 10158.25267
897.2620 10060.13449
897.4397 10005.67900
897.6175 10052.18837
897.7952 10068.92028
897.9729 10213.26112
898.1506 10196.36537
898.3282 10067.28190
898.5059 10010.81940
898.6835 10039.28617
898.8611 10124.66599
899.0388 9995.33676
899.2163 9809.54504
899.3939 9791.25667
899.5715 9898.11968
899.7490 9846.69519
899.9266 9861.52248
900.1041 9962.77406
900.2816 9911.73868
900.4591 9839.71162
900.6365 9854.57987
900.8140 9733.38108
900.9914 9760.96722
901.1689 9771.76001
901.3463 9723.34603
901.5237 9711.83645
901.7011 9676.48851
901.8784 9668.68575
902.0558 9578.82088
902.2331 9639.68651
902.4104 9754.90523
902.5878 9719.02482
902.7650 9664.58981
902.9423 9616.31918
903.1196 9662.37800
903.2968 9786.54635
903.4741 9758.34582
903.6513 9630.36825
903.8285 9536.10025
904.0057 9587.75002
904.1828 9453.40327
904.3600 9335.01020
904.5371 9344.47181
904.7143 9370.50150
904.8914 9445.17044
905.0685 9515.51816
905.2456 9508.47315
905.4226 9511.97518
905.5997 9564.17790
905.7767 9632.62102
905.9537 9451.86729
906.1307 9358.82807
906.3077 9270.60158
906.4847 9253.46008
906.6617 9234.86453
906.8386 9320.96113
907.0156 9231.26010
907.1925 9137.91368
907.3694 9113.93197
907.5463 9188.21180
907.7231 9217.06768
907.9000 9208.01565
908.0768 9146.51515
908.2537 8983.23060
908.4305 9037.70657
908.6073 9228.33150
908.7841 9210.94425
908.9608 9081.30783
909.1376 9032.70953
909.3143 9004.61140
909.4910 8916.09819
909.6677 8907.59912
909.8444 8968.89482
910.0211 8979.54426
910.1978 8920.70612
910.3744 8948.41514
910.5510 8985.03282
910.7277 9009.77228
910.9043 8883.53549
911.0808 8944.52400
911.2574 8925.62124
911.4340 8854.18809
911.6105 8706.81626
911.7870 8764.13891
911.9636 8780.62506
912.1401 8746.30110
912.3165 8824.30823
912.4930 8764.30275
912.6695 8660.63457
912.8459 8643.14491
913.0223 8633.97001
913.1987 8656.86630
913.3751 8604.92982
913.5515 8548.50828
913.7279 8583.83574
913.9042 8561.71768
914.0805 8507.44650
914.2568 8485.55372
914.4331 8455.34618
914.6094 8460.73234
914.7857 8425.34344
914.9620 8411.49917
915.1382 8361.20106
915.3144 8291.14005
915.4906 8400.72685
915.6668 8447.09287
915.8430 8350.77690
916.0192 8157.16193
916.1953 8285.30333
916.3715 8352.84534
916.5476 8282.88673
916.7237 8304.02177
916.8998 8276.72235
917.0759 8239.94083
917.2519 8173.23848
917.4280 8256.20170
917.6040 8220.73088
917.7800 8237.07367
917.9560 8190.05231
918.1320 8159.37374
918.3080 8177.39586
918.4839 8077.18875
918.6599 8020.23474
918.8358 8069.85702
919.0117 8085.81070
919.1876 8018.78068
919.3635 8033.44414
919.5394 8085.64686
919.7152 8017.38806
919.8911 7952.56985
920.0669 7928.36286
920.2427 7863.97472
920.4185 7774.76520
920.5942 7780.86815
920.7700 7759.75359
920.9458 7823.28158
921.1215 7839.50150
921.2972 7821.27458
921.4729 7818.10022
921.6486 7675.07009
921.8243 7542.99658
921.9999 7565.58568
922.1756 7598.37366
922.3512 7618.68951
922.5268 7533.22777
922.7024 7646.05037
922.8780 7698.90844
923.0535 7692.49830
923.2291 7669.72489
923.4046 7678.65403
923.5801 7792.50061
923.7557 7688.52524
923.9311 7629.11367
924.1066 7592.70078
924.2821 7679.10458
924.4575 7657.41660
924.6330 7637.94041
924.8084 7518.70767
924.9838 7431.93524
925.1592 7417.16938
925.3345 7418.07049
925.5099 7421.12196
925.6852 7412.72529
925.8606 7378.83141
926.0359 7313.15305
926.2112 7316.81891
926.3864 7272.84902
926.5617 7196.48027
926.7370 7203.50480
926.9122 7165.69930
927.0874 7122.87627
927.2626 7102.66282
927.4378 7105.22278
927.6130 7083.24808
927.7882 7069.21949
927.9633 7016.68909
928.1384 6925.59544
928.3135 6818.15900
928.4886 6787.95146
928.6637 6847.30160
928.8388 6852.85159
929.0139 6864.77077
929.1889 6823.27892
929.3639 6814.28834
929.5389 6838.74109
929.7139 6801.87765
929.8889 6827.37486
930.0639 6852.07336
930.2388 6791.74020
930.4138 6734.17180
930.5887 6770.60517
930.7636 6832.18759
930.9385 6807.18189
931.1134 6663.49640
931.2882 6643.01671
931.4631 6544.22270
931.6379 6532.87695
931.8127 6512.11055
931.9875 6525.42235
932.1623 6504.94266
932.3371 6520.15907
932.5118 6534.76109
932.6866 6502.32126
932.8613 6448.66448
933.0360 6450.20046
933.2107 6385.05457
933.3854 6336.19004
933.5600 6349.82951
933.7347 6251.40413
933.9093 6271.26943
934.0839 6276.18455
934.2586 6313.99005
934.4331 6306.53545
934.6077 6228.52832
934.7823 6195.35123
934.9568 6212.98424
935.1314 6172.41398
935.3059 6156.21454
935.4804 6096.96681
935.6549 6112.83856
935.8293 6153.94130
936.0038 6112.08082
936.1782 6112.42897
936.3526 6127.68634
936.5271 6046.17718
936.7015 5997.14881
936.8758 6004.31670
937.0502 6034.36040
937.2246 5996.37058
937.3989 6060.12385
937.5732 6011.68939
937.7475 5947.48557
937.9218 5913.59168
938.0961 5913.01825
938.2703 5919.34648
938.4446 5869.10980
938.6188 5891.24835
938.7930 5833.94618
938.9672 5805.62277
939.1414 5828.99010
939.3156 5744.12227
939.4897 5667.11865
939.6639 5645.73785
939.8380 5696.83467
940.0121 5664.51773
940.1862 5713.77137
940.3603 5720.05864
940.5344 5758.60141
940.7084 5757.29071
940.8824 5741.68519
941.0565 5720.52967
941.2305 5676.45738
941.4045 5604.30744
941.5784 5584.50359
941.7524 5609.57072
941.9263 5675.00333
942.1003 5675.14668
942.2742 5638.07845
942.4481 5535.00418
942.6220 5529.94570
942.7958 5537.60510
942.9697 5552.63719
943.1435 5567.38257
943.3174 5568.40655
943.4912 5528.45068
943.6650 5493.55329
943.8387 5460.47860
944.0125 5399.89968
944.1863 5409.34082
944.3600 5403.03308
944.5337 5382.79914
944.7074 5401.66094
944.8811 5391.27773
945.0548 5344.93220
945.2284 5266.29020
945.4021 5255.66124
945.5757 5304.66914
945.7493 5249.29206
945.9229 5145.74676
946.0965 5112.36487
946.2701 5096.20640
946.4436 5131.69770
946.6172 5129.58829
946.7907 5116.33793
946.9642 5120.76154
947.1377 5109.72299
947.3112 5117.44383
947.4847 5128.29807
947.6581 5148.92111
947.8315 5156.86723
948.0050 5051.00773
948.1784 5049.65607
948.3518 5063.74609
948.5251 5047.30090
948.6985 5089.01803
948.8718 5076.17726
949.0452 5002.73710
949.2185 4997.74006
949.3918 4983.17900
949.5651 5004.84651
949.7383 4928.37536
949.9116 4952.23419
950.0848 4956.80116
950.2581 4950.61630
950.4313 4986.06664
950.6045 4995.56921
950.7776 4993.88988
950.9508 4930.01373
951.1239 4882.09126
951.2971 4827.16474
951.4702 4841.72580
951.6433 4823.80607
951.8164 4803.38782
951.9895 4828.76216
952.1625 4755.48584
952.3356 4794.64300
952.5086 4730.45966
952.6816 4797.03912
952.8546 4765.45944
953.0276 4738.20098
953.2006 4753.00779
953.3735 4735.78438
953.5465 4734.82183
953.7194 4712.80617
953.8923 4675.06210
954.0652 4699.63773
954.2381 4629.53576
954.4109 4608.40072
954.5838 4599.84021
954.7566 4566.47880
954.9294 4528.87809
955.1022 4556.21848
955.2750 4568.42437
955.4478 4541.10447
955.6206 4554.88730
955.7933 4578.47990
955.9660 4543.84875
956.1388 4557.67253
956.3115 4514.64471
956.4841 4468.77021
956.6568 4443.04772
956.8295 4419.00457
957.0021 4404.93503
957.1747 4419.49608
957.3473 4402.47746
957.5199 4375.38284
957.6925 4387.42489
957.8651 4419.61896
958.0376 4428.77338
958.2102 4372.76144
958.3827 4448.02429
958.5552 4465.61634
958.7277 4440.44680
958.9001 4387.17914
959.0726 4320.14912
959.2450 4295.88069
959.4175 4286.25524
959.5899 4243.90324
959.7623 4230.01801
959.9347 4183.46768
960.1070 4157.06937
960.2794 4157.31512
960.4517 4146.31753
960.6241 4166.12139
960.7964 4188.32137
960.9687 4223.23924
961.1409 4205.07375
961.3132 4156.22970
961.4855 4111.91166
961.6577 4102.92107
961.8299 4123.93323
962.0021 4119.55058
962.1743 4064.68550
962.3465 4042.79271
962.5186 4035.31763
962.6908 4046.15138
962.8629 4022.14919
963.0350 4015.47281
963.2071 4023.19365
963.3792 3975.90605
963.5513 3962.20514
963.7233 4005.21248
963.8954 3991.73685
964.0674 3974.32912
964.2394 3972.32211
964.4114 3937.99815
964.5834 3927.71735
964.7553 3946.82490
964.9273 3939.65700
965.0992 3890.91535
965.2711 3922.57695
965.4430 3927.53303
965.6149 3913.03341
965.7868 3880.83934
965.9587 3852.00394
966.1305 3871.88972
966.3023 3881.47421
966.4741 3878.60706
966.6459 3853.51944
966.8177 3869.14544
966.9895 3832.77352
967.1613 3822.06264
967.3330 3825.21651
967.5047 3794.76322
967.6764 3795.52096
967.8481 3778.89146
968.0198 3755.03262
968.1915 3736.51898
968.3631 3733.77471
968.5347 3730.12932
968.7064 3724.00590
968.8780 3710.07971
969.0496 3718.31254
969.2211 3688.43268
969.3927 3711.80000
969.5642 3666.10982
969.7358 3648.55873
969.9073 3619.72333
970.0788 3676.02199
970.2503 3696.03064
970.4217 3671.68029
970.5932 3659.22864
970.7646 3638.50320
970.9360 3640.12110
971.1074 3644.33991
971.2788 3682.78028
971.4502 3663.01739
971.6216 3624.39270
971.7929 3589.86394
971.9643 3568.70843
972.1356 3601.68072
972.3069 3586.40288
972.4782 3585.97280
972.6494 3546.11933
972.8207 3537.23115
972.9919 3535.36749
973.1632 3500.63394
973.3344 3467.78453
973.5056 3445.74838
973.6768 3458.40483
973.8479 3499.67140
974.0191 3503.89021
974.1902 3489.06292
974.3614 3461.14911
974.5325 3470.26257
974.7036 3462.70556
974.8746 3449.63952
975.0457 3418.91999
975.2167 3415.47940
975.3878 3392.58311
975.5588 3387.74991
975.7298 3392.25544
975.9008 3368.70380
976.0718 3369.27723
976.2427 3339.13113
976.4137 3327.29387
976.5846 3321.19092
976.7555 3316.74683
976.9264 3305.74924
977.0973 3317.72985
977.2682 3327.21195
977.4390 3319.81878
977.6098 3353.01636
977.7807 3358.27964
977.9515 3357.97244
978.1223 3346.68813
978.2930 3323.30033
978.4638 3295.71419
978.6346 3261.10352
978.8053 3235.23767
978.9760 3225.26407
979.1467 3219.26352
979.3174 3215.86389
979.4881 3222.23307
979.6587 3208.63456
979.8294 3205.82884
980.0000 3180.82314
980.1706 3173.16374
980.3412 3152.58165
980.5118 3129.58297
980.6824 3137.89772
980.8529 3171.70968
981.0235 3168.92445
981.1940 3176.31761
981.3645 3145.65952
981.5350 3149.32538
981.7055 3115.34958
981.8759 3122.33316
982.0464 3129.76728
982.2168 3092.63761
982.3872 3118.07338
982.5576 3115.49294
982.7280 3114.89903
982.8984 3117.49995
983.0687 3110.80309
983.2391 3090.58964
983.4094 3080.80035
983.5797 3051.92399
983.7500 3043.46588
983.9203 3029.99025
984.0906 3045.24761
984.2608 3013.62698
984.4311 3026.32438
984.6013 3011.68140
984.7715 3050.46993
984.9417 3030.15408
985.1119 3023.84634
985.2820 2983.15320
985.4522 2978.93438
985.6223 2988.41648
985.7924 2979.07774
985.9625 2994.13031
986.1326 3014.93767
986.3027 2986.10228
986.4727 2986.61427
986.6428 2976.66114
986.8128 2944.48755
986.9828 2939.28571
987.1528 2933.55140
987.3228 2947.74382
987.4928 2947.98958
987.6627 2950.91817
987.8327 2936.21376
988.0026 2914.40289
988.1725 2914.64865
988.3424 2885.17837
988.5123 2890.97413
988.6821 2888.53704
988.8520 2896.25789
989.0218 2867.66824
989.1916 2891.11748
989.3614 2848.78597
989.5312 2842.29391
989.7010 2824.43562
989.8707 2827.89669
990.0405 2817.69780
990.2102 2819.82769
990.3799 2808.19523
990.5496 2802.01036
990.7193 2793.40890
990.8890 2800.69966
991.0586 2776.90227
991.2283 2801.41645
991.3979 2785.68805
991.5675 2789.62015
991.7371 2776.43123
991.9067 2767.05154
992.0762 2733.54677
992.2458 2745.83458
992.4153 2765.14693
992.5848 2778.76592
992.7543 2772.29434
992.9238 2745.97794
993.0933 2740.73514
993.2627 2745.77314
993.4322 2723.18405
993.6016 2729.34843
993.7710 2700.43111
993.9404 2699.79624
994.1098 2698.50602
994.2792 2706.41118
994.4485 2684.53888
994.6179 2683.74017
994.7872 2693.22226
994.9565 2678.82504
995.1258 2693.71378
995.2951 2685.27615
995.4643 2686.87356
995.6336 2697.72780
995.8028 2664.93982
995.9720 2645.52507
996.1412 2651.01363
996.3104 2650.01012
996.4796 2658.77543
996.6487 2656.52266
996.8179 2653.08208
996.9870 2655.78540
997.1561 2642.41216
997.3252 2618.90148
997.4943 2594.22345
997.6634 2589.67696
997.8324 2613.80204
998.0014 2602.57917
998.1705 2594.89928
998.3395 2558.19968
998.5085 2531.84233
998.6774 2555.12773
998.8464 2537.49472
999.0153 2556.06980
999.1843 2557.33954
999.3532 2567.35410
999.5221 2541.75450
999.6910 2547.61169
999.8599 2569.03344
1000.0287 2579.49856
1000.1976 2573.02698
1000.3664 2576.87716
1000.5352 2569.91407
1000.7040 2569.42255
1000.8728 2547.81648
1001.0415 2521.93016
1001.2103 2494.36450
1001.3790 2494.34402
1001.5478 2490.86247
1001.7165 2477.30492
1001.8851 2479.23001
1002.0538 2485.02576
1002.2225 2491.55878
1002.3911 2489.20362
1002.5598 2461.80180
1002.7284 2462.47762
1002.8970 2467.45419
1003.0656 2471.57061
1003.2341 2460.30678
1003.4027 2451.93059
1003.5712 2411.72896
1003.7398 2414.43228
1003.9083 2407.63302
1004.0768 2397.55702
1004.2453 2386.35463
1004.4137 2414.84187
1004.5822 2395.83672
1004.7506 2415.27195
1004.9190 2377.17973
1005.0874 2392.55997
1005.2558 2381.11183
1005.4242 2381.43950
1005.5926 2393.07196
1005.7609 2384.16330
1005.9292 2360.63214
1006.0976 2379.10482
1006.2659 2370.81054
1006.4342 2387.54245
1006.6024 2373.16571
1006.7707 2376.42198
1006.9389 2388.70979
1007.1071 2378.81810
1007.2754 2372.53084
1007.4436 2362.57771
1007.6117 2348.73344
1007.7799 2351.90779
1007.9481 2337.89969
1008.1162 2345.08806
1008.2843 2332.45209
1008.4524 2341.48363
1008.6205 2332.94360
1008.7886 2335.40116
1008.9566 2314.59380
1009.1247 2312.66871
1009.2927 2294.74898
1009.4607 2302.79750
1009.6287 2288.97371
1009.7967 2285.10305
1009.9647 2278.85675
1010.1327 2282.99364
1010.3006 2268.04347
1010.4685 2273.51155
1010.6364 2264.54145
1010.8043 2267.71580
1010.9722 2245.88445
1011.1401 2240.04774
1011.3079 2230.74996
1011.4758 2249.75511
1011.6436 2241.25604
1011.8114 2243.01729
1011.9792 2250.34902
1012.1470 2252.90898
1012.3147 2258.25418
1012.4825 2265.19680
1012.6502 2258.15178
1012.8179 2261.28518
1012.9856 2227.32985
1013.1533 2241.99331
1013.3210 2222.76288
1013.4886 2209.61492
1013.6563 2203.67581
1013.8239 2201.52545
1013.9915 2204.37212
1014.1591 2193.53837
1014.3267 2200.84962
1014.4942 2197.83910
1014.6618 2191.57232
1014.8293 2199.90755
1014.9969 2188.09077
1015.1644 2198.67877
1015.3319 2199.37508
1015.4993 2177.66661
1015.6668 2179.59170
1015.8342 2178.09668
1016.0017 2180.28801
1016.1691 2180.55425
1016.3365 2159.25537
1016.5039 2167.52917
1016.6712 2179.07971
1016.8386 2163.10555
1017.0059 2156.57253
1017.1733 2164.70297
1017.3406 2154.99560
1017.5079 2153.27530
1017.6752 2131.73067
1017.8424 2128.24913
1018.0097 2123.55928
1018.1769 2127.49138
1018.3441 2118.09120
1018.5113 2126.65171
1018.6785 2107.05265
1018.8457 2114.69157
1019.0129 2124.58326
1019.1800 2124.93142
1019.3471 2130.78861
1019.5142 2128.18769
1019.6813 2125.01333
1019.8484 2133.94248
1020.0155 2120.32349
1020.1826 2114.67109
1020.3496 2101.40025
1020.5166 2083.93108
1020.6836 2080.85913
1020.8506 2089.31724
1021.0176 2066.56431
1021.1846 2074.12131
1021.3515 2061.44438
1021.5185 2073.11781
1021.6854 2066.74862
1021.8523 2080.12186
1022.0192 2078.19677
1022.1861 2069.32906
1022.3529 2059.35546
1022.5198 2069.84106
1022.6866 2048.66506
1022.8534 2074.16227
1023.0202 2044.05713
1023.1870 2047.41580
1023.3538 2049.50473
1023.5205 2049.73000
1023.6873 2046.57613
1023.8540 2039.89975
1024.0207 2028.08297
1024.1874 2046.65805
1024.3541 2031.40068
1024.5207 2040.84182
1024.6874 2016.79867
1024.8540 2036.04957
1025.0206 2017.33114
1025.1872 2017.51545
1025.3538 2016.10236
1025.5204 2021.09940
1025.6870 2019.21527
1025.8535 2002.05329
1026.0201 2002.36049
1026.1866 2000.23060
1026.3531 1996.19610
1026.5196 1999.92340
1026.6860 2003.97838
1026.8525 1996.21658
1027.0189 1981.34833
1027.1853 1980.44722
1027.3518 1981.86032
1027.5181 1992.87839
1027.6845 1983.72397
1027.8509 1971.49760
1028.0172 1958.04244
1028.1836 1959.35314
1028.3499 1951.36606
1028.5162 1960.11089
1028.6825 1950.36256
1028.8488 1946.16422
1029.0150 1935.06423
1029.1813 1940.14320
1029.3475 1942.06829
1029.5137 1950.17824
1029.6799 1940.79855
1029.8461 1938.15667
1030.0123 1923.86184
1030.1784 1927.81442
1030.3446 1938.09523
1030.5107 1931.15261
1030.6768 1926.15557
1030.8429 1924.94727
1031.0090 1912.10650
1031.1750 1918.66000
1031.3411 1913.43768
1031.5071 1918.47569
1031.6732 1911.06204
1031.8392 1905.71684
1032.0051 1893.01943
1032.1711 1904.83621
1032.3371 1902.27625
1032.5030 1898.07792
1032.6690 1893.61335
1032.8349 1901.25227
1033.0008 1890.78715
1033.1667 1890.47995
1033.3325 1892.52792
1033.4984 1890.25468
1033.6642 1893.08087
1033.8300 1901.25227
1033.9959 1886.11778
1034.1616 1901.06795
1034.3274 1893.06039
1034.4932 1886.34306
1034.6589 1877.22960
1034.8247 1888.82110
1034.9904 1874.97683
1035.1561 1878.72461
1035.3218 1874.17812
1035.4875 1871.33145
1035.6531 1863.77444
1035.8188 1879.27756
1035.9844 1861.70599
1036.1500 1853.22740
1036.3156 1847.02206
1036.4812 1856.09456
1036.6468 1853.30932
1036.8123 1856.93422
1036.9779 1839.71081
1037.1434 1862.25894
1037.3089 1849.99161
1037.4744 1855.91024
1037.6399 1844.68737
1037.8053 1843.39715
1037.9708 1845.83423
1038.1362 1854.37426
1038.3016 1849.17242
1038.4670 1849.07003
1038.6324 1840.01800
1038.7978 1822.34403
1038.9632 1842.49605
1039.1285 1835.22576
1039.2938 1819.02632
1039.4592 1825.27263
1039.6245 1817.14219
1039.7897 1821.40197
1039.9550 1819.16968
1040.1203 1827.30012
1040.2855 1804.40383
1040.4507 1815.46286
1040.6159 1812.78002
1040.7811 1813.98832
1040.9463 1800.30789
1041.1115 1792.79184
1041.2766 1796.51915
1041.4418 1789.47413
1041.6069 1776.79721
1041.7720 1787.65144
1041.9371 1782.26528
1042.1021 1784.53853
1042.2672 1772.82415
1042.4323 1789.65845
1042.5973 1776.77673
1042.7623 1784.37469
1042.9273 1774.54444
1043.0923 1793.42671
1043.2572 1773.86861
1043.4222 1769.30164
1043.5871 1759.59427
1043.7521 1774.79020
1043.9170 1774.54444
1044.0819 1768.60533
1044.2467 1770.50994
1044.4116 1764.73467
1044.5765 1756.58376
1044.7413 1760.67969
1044.9061 1751.83247
1045.0709 1757.25959
1045.2357 1749.68210
1045.4005 1747.04022
1045.5652 1741.79742
1045.7300 1736.69798
1045.8947 1734.58857
1046.0594 1738.62307
1046.2241 1733.60555
1046.3888 1736.65702
1046.5535 1737.16901
1046.7181 1725.47511
1046.8828 1726.02806
1047.0474 1715.72678
1047.2120 1711.91756
1047.3766 1738.23396
1047.5412 1709.70575
1047.7057 1716.52549
1047.8703 1711.63084
1048.0348 1718.22530
1048.1993 1708.02642
1048.3639 1710.97549
1048.5283 1696.72163
1048.6928 1714.25224
1048.8573 1698.74912
1049.0217 1696.10724
1049.1861 1687.28049
1049.3506 1705.48694
1049.5150 1691.41739
1049.6793 1700.10078
1049.8437 1695.65669
1050.0081 1697.13122
1050.1724 1689.16462
1050.3367 1691.06924
1050.5010 1682.36537
1050.6653 1680.52220
1050.8296 1671.36778
1050.9939 1684.43382
1051.1581 1665.59250
1051.3224 1684.59765
1051.4866 1676.09858
1051.6508 1675.42275
1051.8150 1663.40118
1051.9791 1663.23734
1052.1433 1655.29122
1052.3074 1668.50062
1052.4716 1649.90506
1052.6357 1656.19233
1052.7998 1651.64584
1052.9639 1663.09398
1053.1279 1639.95194
1053.2920 1653.42757
1053.4560 1637.22814
1053.6201 1650.04842
1053.7841 1633.15268
1053.9481 1629.20010
1054.1120 1634.36098
1054.2760 1643.02389
1054.4399 1633.11172
1054.6039 1631.59622
1054.7678 1625.08368
1054.9317 1634.52482
1055.0956 1630.77704
1055.2595 1639.66522
1055.4233 1615.99070
1055.5872 1622.60564
1055.7510 1612.42724
1055.9148 1621.43830
1056.0786 1618.89882
1056.2424 1630.01929
1056.4062 1608.96617
1056.5699 1623.22003
1056.7336 1616.21598
1056.8974 1601.16341
1057.0611 1597.45658
1057.2248 1602.88370
1057.3885 1604.39920
1057.5521 1604.97263
1057.7158 1599.52503
1057.8794 1603.10898
1058.0430 1598.52153
1058.2066 1598.99256
1058.3702 1593.11489
1058.5338 1599.40215
1058.6973 1588.56840
1058.8609 1589.01895
1059.0244 1583.36656
1059.1879 1588.93703
1059.3514 1575.50236
1059.5149 1587.42154
1059.6784 1579.43446
1059.8418 1569.29701
1060.0053 1573.00384
1060.1687 1573.27007
1060.3321 1562.35440
1060.4955 1563.68558
1060.6589 1562.94831
1060.8222 1558.29942
1060.9856 1560.96178
1061.1489 1565.71307
1061.3122 1550.57858
1061.4755 1565.30348
1061.6388 1554.92027
1061.8021 1560.20403
1061.9654 1553.54813
1062.1286 1561.20754
1062.2918 1560.26547
1062.4550 1552.48319
1062.6182 1542.55054
1062.7814 1552.13504
1062.9446 1552.15552
1063.1077 1547.01511
1063.2709 1527.37509
1063.4340 1537.86069
1063.5971 1527.72325
1063.7602 1539.08947
1063.9233 1526.84262
1064.0863 1529.73026
1064.2494 1529.17731
1064.4124 1535.01402
1064.5754 1520.94447
1064.7384 1527.90757
1064.9014 1517.66772
1065.0644 1526.47399
1065.2274 1505.25703
1065.3903 1507.69411
1065.5532 1505.17511
1065.7162 1514.51385
1065.8790 1507.24356
1066.0419 1511.95389
1066.2048 1510.49983
1066.3677 1506.50629
1066.5305 1509.80352
1066.6933 1504.19209
1066.8561 1492.23195
1067.0189 1500.83342
1067.1817 1497.49523
1067.3445 1489.36479
1067.5072 1480.70189
1067.6699 1483.05705
1067.8327 1482.91369
1067.9954 1489.44671
1068.1580 1485.49413
1068.3207 1479.02255
1068.4834 1474.43510
1068.6460 1482.07402
1068.8086 1474.82422
1068.9713 1471.38363
1069.1339 1461.81961
1069.2964 1466.73474
1069.4590 1463.45799
1069.6216 1467.04193
1069.7841 1456.51537
1069.9466 1464.93253
1070.1091 1460.57035
1070.2716 1450.39195
1070.4341 1453.70966
1070.5966 1458.13327
1070.7590 1448.95837
1070.9214 1469.02846
1071.0839 1439.84491
1071.2463 1453.70966
1071.4086 1448.73309
1071.5710 1435.05266
1071.7334 1432.43126
1071.8957 1441.21705
1072.0580 1433.35285
1072.2204 1439.04620
1072.3827 1426.41023
1072.5449 1435.58513
1072.7072 1431.42776
1072.8695 1425.12001
1073.0317 1423.58404
1073.1939 1421.67943
1073.3561 1417.33773
1073.5183 1429.76890
1073.6805 1413.22132
1073.8427 1418.83275
1074.0048 1414.49106
1074.1669 1423.89123
1074.3291 1409.43257
1074.4912 1417.15342
1074.6532 1401.95749
1074.8153 1405.82815
1074.9774 1396.91948
1075.1394 1404.31265
1075.3014 1406.81117
1075.4635 1399.90952
1075.6255 1394.76912
1075.7874 1397.63627
1075.9494 1386.57724
1076.1114 1395.03535
1076.2733 1392.08628
1076.4352 1396.81709
1076.5971 1379.81895
1076.7590 1388.29754
1076.9209 1377.25898
1077.0828 1377.66858
1077.2446 1376.29644
1077.4064 1382.50178
1077.5683 1365.93372
1077.7301 1372.48722
1077.8918 1364.95069
1078.0536 1371.34035
1078.2154 1368.96471
1078.3771 1371.11508
1078.5388 1363.04608
1078.7006 1364.29534
1078.8623 1357.41417
1079.0239 1368.98519
1079.1856 1360.11749
1079.3473 1367.01914
1079.5089 1350.65587
1079.6705 1358.17192
1079.8321 1348.95606
1079.9937 1362.47265
1080.1553 1342.46400
1080.3169 1352.66288
1080.4784 1345.53595
1080.6399 1353.37967
1080.8014 1341.76769
1080.9629 1350.41011
1081.1244 1336.97544
1081.2859 1347.52248
1081.4474 1326.46936
1081.6088 1337.69223
1081.7702 1329.93043
1081.9316 1329.84851
1082.0930 1329.50035
1082.2544 1329.27508
1082.4158 1327.26807
1082.5771 1333.90349
1082.7385 1326.18264
1082.8998 1327.96438
1083.0611 1311.90830
1083.2224 1326.22360
1083.3837 1319.19907
1083.5449 1318.05221
1083.7062 1308.07860
1083.8674 1309.88081
1084.0286 1308.34484
1084.1898 1305.80535
1084.3510 1291.01902
1084.5122 1304.39226
1084.6734 1296.58950
1084.8345 1306.60406
1084.9956 1287.18932
1085.1567 1305.55960
1085.3178 1292.49356
1085.4789 1300.15296
1085.6400 1284.99799
1085.8010 1290.75278
1085.9621 1286.61589
1086.1231 1290.73230
1086.2841 1276.33508
1086.4451 1285.05943
1086.6061 1286.63637
1086.7670 1286.12437
1086.9280 1279.52992
1087.0889 1279.69375
1087.2498 1276.02789
1087.4107 1283.15482
1087.5716 1284.11737
1087.7325 1277.23619
1087.8933 1268.57328
1088.0542 1295.58599
1088.2150 1266.15668
1088.3758 1271.99339
1088.5366 1269.67919
1088.6974 1271.19468
1088.8582 1273.24265
1089.0189 1270.39598
1089.1796 1261.65115
1089.3404 1276.25317
1089.5011 1264.86646
1089.6618 1281.55740
1089.8224 1262.69561
1089.9831 1274.92199
1090.1438 1260.81148
1090.3044 1279.75519
1090.4650 1268.45040
1090.6256 1265.97236
1090.7862 1257.51425
1090.9468 1261.58971
1091.1073 1256.96130
1091.2679 1260.79100
1091.4284 1263.06425
1091.5889 1267.87697
1091.7494 1257.02274
1091.9099 1263.51480
1092.0703 1253.39783
1092.2308 1262.77753
1092.3912 1264.41591
1092.5516 1264.60022
1092.7121 1255.34340
1092.8724 1264.29303
1093.0328 1254.83141
1093.1932 1256.03971
1093.3535 1244.96020
1093.5139 1269.49487
1093.6742 1253.62311
1093.8345 1258.86591
1093.9948 1257.16610
1094.1550 1259.43934
1094.3153 1259.02975
1094.4755 1262.38842
1094.6358 1253.45927
1094.7960 1259.50078
1094.9562 1251.14507
1095.1163 1260.62716
1095.2765 1254.74949
1095.4367 1260.48381
1095.5968 1251.80042
1095.7569 1264.55926
1095.9170 1248.35983
1096.0771 1262.32698
1096.2372 1257.69857
1096.3973 1259.58270
1096.5573 1253.45927
1096.7173 1258.37440
1096.8773 1256.51075
1097.0374 1252.82440
1097.1973 1253.78695
1097.3573 1256.57219
1097.5173 1247.31537
1097.6772 1257.82145
1097.8371 1245.86131
1097.9970 1250.96075
1098.1569 1255.01573
1098.3168 1258.08768
1098.4767 1242.44120
1098.6365 1251.69802
1098.7964 1259.64414
1098.9562 1258.70207
1099.1160 1237.32128
1099.2758 1255.56868
1099.4356 1249.56813
1099.5953 1253.93031
1099.7551 1252.10761
1099.9148 1261.40539
1100.0745 1252.74248
1100.2342 1256.08067
1100.3939 1247.74544
1100.5536 1262.40890
1100.7132 1256.44931
1100.8729 1251.98474
1101.0325 1256.24451
1101.1921 1260.95484
1101.3517 1249.07662
1101.5113 1256.49027
1101.6709 1248.05264
1101.8304 1250.57164
1101.9899 1242.93271
1102.1495 1261.05724
1102.3090 1246.10707
1102.4685 1261.54875
1102.6279 1251.90282
1102.7874 1251.34987
1102.9468 1245.28788
1103.1063 1254.58566
1103.2657 1248.91278
1103.4251 1259.93085
1103.5845 1253.45927
1103.7438 1252.82440
1103.9032 1243.87478
1104.0625 1259.21407
1104.2219 1243.62902
1104.3812 1262.14266
1104.5405 1250.34636
1104.6997 1260.83196
1104.8590 1251.43178
1105.0183 1255.85540
1105.1775 1247.17201
1105.3367 1259.54174
1105.4959 1252.47625
1105.6551 1263.84248
1105.8143 1241.19194
1105.9735 1264.17015
1106.1326 1243.83382
1106.2917 1259.58270
1106.4508 1242.64600
1106.6099 1254.21702
1106.7690 1242.42072
1106.9281 1255.56868
1107.0872 1245.36980
1107.2462 1252.37385
1107.4052 1251.53418
1107.5642 1245.16500
1107.7232 1252.88584
1107.8822 1255.83492
1108.0412 1254.07366
1108.2001 1250.57164
1108.3591 1245.20596
1108.5180 1256.12163
1108.6769 1248.23695
1108.8358 1254.33990
1108.9947 1242.70744
1109.1535 1253.93031
1109.3124 1248.54415
1109.4712 1260.27901
1109.6300 1253.95079
1109.7888 1257.14562
1109.9476 1244.89876
1110.1064 1261.28251
1110.2651 1256.61315
1110.4239 1256.44931
1110.5826 1246.45522
1110.7413 1254.97477
1110.9000 1246.06611
1111.0587 1253.90983
1111.2173 1245.26740
1111.3760 1250.12108
1111.5346 1252.61961
1111.6932 1256.65410
1111.8518 1241.39674
1112.0104 1252.25097
1112.1690 1242.09305
1112.3276 1257.51425
1112.4861 1243.56758
1112.6446 1252.64009
1112.8032 1256.40835
1112.9617 1257.22754
1113.1201 1255.24101
1113.2786 1256.75650
1113.4371 1252.04617
1113.5955 1254.23750
1113.7539 1241.60153
1113.9123 1254.58566
1114.0707 1251.32939
1114.2291 1252.61961
1114.3875 1246.51666
1114.5458 1255.03621
1114.7042 1248.42127
1114.8625 1246.90577
1115.0208 1245.84083
1115.1791 1252.33289
1115.3374 1243.77238
1115.4956 1250.46924
1115.6539 1240.12700
1115.8121 1255.36388
1115.9703 1252.25097
1116.1285 1249.56813
1116.2867 1244.71445
1116.4449 1249.79341
1116.6030 1247.86832
1116.7612 1256.24451
1116.9193 1251.20651
1117.0774 1257.71905
1117.2355 1244.75541
1117.3936 1258.12864
1117.5516 1245.30836
1117.7097 1250.40780
1117.8677 1246.18898
1118.0257 1250.16204
1118.1837 1253.62311
1118.3417 1260.15613
1118.4997 1245.57459
1118.6577 1254.23750
1118.8156 1247.52016
1118.9735 1254.74949
1119.1315 1247.52016
1119.2894 1259.11167
1119.4472 1252.12809
1119.6051 1253.74599
1119.7630 1237.81279
1119.9208 1261.48731
1120.0786 1238.42718
1120.2364 1255.69156
1120.3942 1246.14802
1120.5520 1257.69857
1120.7098 1258.08768
1120.8675 1260.27901
1121.0253 1257.43233
1121.1830 1262.30650
1121.3407 1251.04267
1121.4984 1255.67108
1121.6560 1255.26149
