# Averages = 100
# wavelength [µm]	intensity
446.8250 14.33578
447.0374 36746.70328
447.2498 1238.87774
447.4621 1226.15985
447.6745 1225.70930
447.8868 1236.44065
448.0992 1246.53714
448.3115 1244.87828
448.5238 1251.49322
448.7360 1245.20596
448.9483 1250.77643
449.1606 1238.89822
449.3728 1269.86350
449.5850 1236.97313
449.7972 1248.46223
450.0094 1240.82331
450.2216 1250.46924
450.4337 1249.38382
450.6459 1741.08063
450.8580 2107.91280
451.0701 2149.91663
451.2822 2176.06920
451.4943 2163.84282
451.7064 2144.57144
451.9184 2130.13326
452.1305 2238.85992
452.3425 2338.32976
452.5545 2242.81250
452.7665 2247.09275
452.9785 2334.50006
453.1905 2379.53489
453.4024 2337.69489
453.6143 2451.76675
453.8263 2438.94646
454.0382 2632.80719
454.2501 2433.68318
454.4619 2399.62546
454.6738 2538.10911
454.8856 2667.66361
455.0975 2464.75087
455.3093 2454.57247
455.5211 2526.78384
455.7329 2504.52242
455.9446 2549.74157
456.1564 2575.27974
456.3681 2663.71103
456.5798 2774.46518
456.7916 2701.78277
457.0033 2655.17100
457.2149 2636.65737
457.4266 2679.27560
457.6382 2720.07113
457.8499 2699.44809
458.0615 2810.65279
458.2731 2716.87630
458.4847 2833.77436
458.6963 2930.82760
458.9078 2958.90525
459.1194 3124.50400
459.3309 3146.37631
459.5424 2986.26611
459.7539 2873.48447
459.9654 2891.73187
460.1769 2941.49752
460.3883 2924.60177
460.5998 2794.14616
460.8112 2788.12514
461.0226 2832.60702
461.2340 2927.26413
461.4454 2894.61951
461.6567 2867.17673
461.8681 2872.31713
462.0794 2827.42566
462.2907 2968.67406
462.5020 3220.06222
462.7133 3318.05753
462.9246 3082.68448
463.1359 2938.83516
463.3471 2797.30004
463.5583 2879.56694
463.7696 3282.15664
463.9808 3107.03483
464.1919 3046.04632
464.4031 3026.16054
464.6143 3044.85850
464.8254 2975.94435
465.0365 2933.18276
465.2476 3208.71648
465.4587 3377.51006
465.6698 2952.22887
465.8809 3026.63158
466.0919 2993.37256
466.3030 3061.69280
466.5140 3090.54868
466.7250 3017.47716
466.9360 3157.18958
467.1469 3082.72544
467.3579 2881.34867
467.5688 2864.20717
467.7798 3112.66674
467.9907 3229.44192
468.2016 3118.93353
468.4125 3073.46862
468.6233 2922.59476
468.8342 2950.65194
469.0450 3139.96617
469.2559 3246.54246
469.4667 3191.53402
469.6775 2935.31265
469.8882 3105.43741
470.0990 3074.79980
470.3098 3366.92206
470.5205 3175.90802
470.7312 3259.17843
470.9419 3471.83950
471.1526 3358.56635
471.3633 3081.08707
471.5739 3109.86103
471.7846 3102.46786
471.9952 3024.01018
472.2058 3141.50214
472.4164 3121.51397
472.6270 3096.44683
472.8376 3228.43842
473.0481 3428.52496
473.2587 3495.51402
473.4692 3403.15063
473.6797 3300.77267
473.8902 3047.15222
474.1007 3023.68250
474.3111 3050.75665
474.5216 2979.24158
474.7320 3100.03078
474.9424 3276.79096
475.1528 3340.35991
475.3632 3190.10044
475.5736 3146.08959
475.7840 3161.51080
475.9943 3196.46963
476.2046 3214.53271
476.4149 3285.72010
476.6252 3301.44850
476.8355 3424.34711
477.0458 3500.22435
477.2561 3493.48653
477.4663 3319.59351
477.6765 3347.81452
477.8867 3353.71267
478.0969 3350.55879
478.3071 3337.79995
478.5173 3438.15042
478.7274 3425.26869
478.9375 3461.90685
479.1477 3441.85724
479.3578 3573.39827
479.5679 3540.32358
479.7779 3548.72025
479.9880 3563.01507
480.1980 3600.82057
480.4081 3615.42259
480.6181 3477.02086
480.8281 3599.38700
481.0381 3538.35753
481.2480 3532.31602
481.4580 3626.72738
481.6679 3571.26839
481.8778 3529.12119
482.0877 3551.46453
482.2976 3441.38621
482.5075 3542.41251
482.7174 3616.69233
482.9272 3690.19393
483.1371 3562.01157
483.3469 3612.90359
483.5567 3733.44703
483.7665 3602.31559
483.9762 3665.96646
484.1860 3815.46818
484.3957 3801.72631
484.6055 3665.20871
484.8152 3742.76529
485.0249 3853.90855
485.2346 3837.05377
485.4442 3839.75709
485.6539 3861.81371
485.8635 3856.61187
486.0732 3729.33061
486.2828 3755.87229
486.4924 3755.01214
486.7019 3868.38769
486.9115 3836.62370
487.1210 3831.09418
487.3306 3973.44849
487.5401 3930.37971
487.7496 3997.75788
487.9591 4034.78515
488.1686 3996.01710
488.3780 3922.59742
488.5875 4029.19420
488.7969 4139.84595
489.0063 4107.59044
489.2157 4157.47896
489.4251 4084.65319
489.6345 4056.90322
489.8438 4177.07802
490.0531 3994.78832
490.2625 4069.72350
490.4718 4158.38007
490.6811 4231.34919
490.8903 4256.17058
491.0996 4283.61336
491.3089 4292.13291
491.5181 4338.82659
491.7273 4355.45610
491.9365 4323.87642
492.1457 4405.69277
492.3549 4422.11748
492.5640 4338.49892
492.7732 4398.36105
492.9823 4462.68774
493.1914 4576.04281
493.4005 4548.55907
493.6096 4516.30357
493.8187 4486.87425
494.0277 4582.55535
494.2368 4586.87657
494.4458 4619.43927
494.6548 4681.41081
494.8638 4725.91317
495.0728 4708.75119
495.2817 4716.59491
495.4907 4754.44137
495.6996 4793.86477
495.9085 4803.87934
496.1174 4844.14240
496.3263 4854.15697
496.5352 4870.04921
496.7440 4982.33933
496.9529 5004.88747
497.1617 4937.05875
497.3705 4989.89634
497.5793 5107.59310
497.7881 4994.77050
497.9969 5080.58040
498.2056 5167.18899
498.4144 5173.64010
498.6231 5237.08617
498.8318 5258.69224
499.0405 5258.63080
499.2492 5239.58469
499.4578 5304.21858
499.6665 5301.20807
499.8751 5434.55131
500.0837 5431.04929
500.2923 5461.15443
500.5009 5477.49722
500.7095 5594.98919
500.9180 5556.61025
501.1266 5621.38750
501.3351 5645.86073
501.5436 5736.46287
501.7521 5709.57304
501.9606 5786.02371
502.1691 5831.24286
502.3775 5780.04364
502.5860 5854.89690
502.7944 5888.68838
503.0028 5964.81138
503.2112 5968.41581
503.4196 6015.49861
503.6279 6084.63803
503.8363 6014.02407
504.0446 6190.43610
504.2529 6170.22265
504.4612 6201.35177
504.6695 6308.00999
504.8778 6322.69392
505.0860 6308.93157
505.2943 6339.03671
505.5025 6429.90509
505.7107 6450.91725
505.9189 6521.20353
506.1271 6570.53910
506.3353 6552.63985
506.5434 6558.94760
506.7516 6681.23181
506.9597 6713.09820
507.1678 6790.57286
507.3759 6746.00906
507.5840 6815.45568
507.7920 6875.54309
508.0001 6898.50082
508.2081 7025.84351
508.4161 6982.93857
508.6241 7169.32420
508.8321 7133.15708
509.0401 7105.93957
509.2480 7234.90016
509.4560 7251.01768
509.6639 7324.33496
509.8718 7326.95636
510.0797 7475.57745
510.2876 7496.07762
510.4955 7569.47682
510.7033 7633.55776
510.9112 7652.70627
511.1190 7759.34400
511.3268 7713.42854
511.5346 7800.13954
511.7424 7839.54246
511.9501 7963.81320
512.1579 7985.68551
512.3656 8019.88658
512.5733 8013.59932
512.7810 8141.39257
512.9887 8230.68401
513.1964 8261.71073
513.4040 8304.36992
513.6117 8368.55326
513.8193 8450.65633
514.0269 8489.95685
514.2345 8606.24052
514.4421 8550.39241
514.6497 8555.84001
514.8572 8742.86051
515.0647 8780.31786
515.2723 8847.92131
515.4798 8903.25742
515.6873 8992.77414
515.8947 9066.37814
516.1022 9036.21156
516.3097 9125.56443
516.5171 9228.35198
516.7245 9317.43862
516.9319 9393.04963
517.1393 9426.32912
517.3467 9417.58430
517.5540 9415.86400
517.7614 9663.81158
517.9687 9689.75934
518.1760 9698.50417
518.3833 9867.42063
518.5906 9885.91379
518.7978 10058.27084
519.0051 10010.55317
519.2123 10173.69436
519.4196 10012.84689
519.6268 10184.61003
519.8340 10257.55868
520.0411 10305.19443
520.2483 10549.74238
520.4554 10500.30442
520.6626 10786.95860
520.8697 10721.46456
521.0768 10933.42933
521.2839 10883.37697
521.4909 10892.61331
521.6980 11070.66371
521.9050 11253.01485
522.1121 11148.69132
522.3191 11441.89901
522.5261 11396.61842
522.7331 11462.37870
522.9400 11658.14403
523.1470 11694.96651
523.3539 11788.92731
523.5608 11789.62362
523.7677 11828.30975
523.9746 11950.14341
524.1815 12224.73506
524.3884 12130.26226
524.5952 12157.17257
524.8020 12447.92270
525.0089 12345.54474
525.2157 12502.66490
525.4225 12580.56963
525.6292 12603.46592
525.8360 12714.36343
526.0427 12840.92790
526.2494 12984.47003
526.4562 12959.25953
526.6629 13085.06625
526.8695 13078.88139
527.0762 13342.02489
527.2829 13423.49309
527.4895 13514.58674
527.6961 13646.70120
527.9027 13774.04390
528.1093 13842.95805
528.3159 13878.46983
528.5224 13834.62282
528.7290 14220.82876
528.9355 14078.22870
529.1420 14443.85256
529.3485 14329.47351
529.5550 14544.87886
529.7615 14510.90306
529.9680 14659.17600
530.1744 14663.31289
530.3808 14935.61082
530.5872 14869.72766
530.7936 15019.67993
531.0000 15085.29685
531.2064 15270.98618
531.4127 15363.22669
531.6191 15462.38934
531.8254 15573.06157
532.0317 15797.27319
532.2380 15729.11679
532.4443 15868.68586
532.6505 15669.07035
532.8568 15966.00533
533.0630 16297.16188
533.2692 16220.40401
533.4754 16383.72952
533.6816 16565.09763
533.8878 16472.11985
534.0939 16834.48744
534.3001 16848.14739
534.5062 16967.19582
534.7123 16862.83133
534.9184 17009.46589
535.1245 17130.99236
535.3306 17173.79490
535.5366 17536.75641
535.7426 17501.38799
535.9487 17578.55545
536.1547 17583.67537
536.3607 17892.09946
536.5666 17773.15344
536.7726 17941.80367
536.9785 18138.22435
537.1845 18298.15023
537.3904 18170.76657
537.5963 18270.78937
537.8022 18474.60322
538.0080 18615.44203
538.2139 18732.19672
538.4197 18868.59144
538.6256 18809.71234
538.8314 18877.74586
539.0372 19045.86362
539.2430 19438.80738
539.4487 19247.07655
539.6545 19585.74914
539.8602 19493.77486
540.0659 19713.03040
540.2716 20107.55110
540.4773 20185.82446
540.6830 20285.54006
540.8887 20425.19105
541.0943 20170.07558
541.2999 20314.94889
541.5056 20369.56822
541.7112 20628.12427
541.9167 20482.73897
542.1223 20520.17584
542.3279 20955.32824
542.5334 21056.49790
542.7389 21245.11582
542.9444 21304.03588
543.1499 21394.08507
543.3554 21343.68456
543.5609 21720.49033
543.7663 21769.21150
543.9718 21616.96551
544.1772 21802.96203
544.3826 21845.25258
544.5880 22471.25519
544.7934 22250.52512
544.9987 22329.26952
545.2041 22735.58652
545.4094 22671.58749
545.6147 22708.77861
545.8200 23001.49478
546.0253 22959.77766
546.2306 23217.14589
546.4358 23084.92903
546.6411 23438.79755
546.8463 23267.71024
547.0515 23535.17496
547.2567 23739.15264
547.4619 23743.51482
547.6670 23881.58887
547.8722 24008.95205
548.0773 24313.83315
548.2824 24317.33518
548.4876 24471.54723
548.6926 24581.35931
548.8977 24713.88337
549.1028 24786.01283
549.3078 25012.12906
549.5129 25005.10453
549.7179 25188.50013
549.9229 25347.01291
550.1279 25223.43847
550.3328 25628.13758
550.5378 25285.10281
550.7427 25607.80125
550.9476 25825.33649
551.1526 25248.30082
551.3575 25866.62354
551.5623 25998.84040
551.7672 25896.46245
551.9720 25952.43343
552.1769 26101.09548
552.3817 26348.28531
552.5865 26173.53214
552.7913 26435.26254
552.9961 26293.15399
553.2008 26488.77597
553.4056 26776.94565
553.6103 26720.23740
553.8150 26955.28277
554.0197 27047.46184
554.2244 26935.13076
554.4291 27023.45965
554.6337 27439.79122
554.8384 27232.16814
555.0430 27431.43550
555.2476 27166.91986
555.4522 27228.78900
555.6568 27568.48557
555.8613 27733.96145
556.0659 27880.47313
556.2704 27564.30772
556.4750 27943.01810
556.6795 28136.16203
556.8839 27812.11193
557.0884 28341.14322
557.2929 28187.72988
557.4973 28012.21896
557.7018 28166.10333
557.9062 28339.30005
558.1106 28396.29502
558.3150 28193.21844
558.5193 28625.44224
558.7237 28708.79457
558.9280 28463.38648
559.1323 28666.70881
559.3367 28529.69970
559.5410 28791.65539
559.7452 28498.16099
559.9495 28869.19148
560.1537 28857.10847
560.3580 28801.32180
560.5622 28990.10356
560.7664 29245.48526
560.9706 29223.32624
561.1748 29384.82906
561.3789 29347.49459
561.5831 29371.53774
561.7872 29288.98412
561.9913 29573.91801
562.1954 29498.45036
562.3995 29677.89338
562.6036 29655.18141
562.8076 29435.31149
563.0117 29713.99907
563.2157 29642.01297
563.4197 29849.49269
563.6237 30057.99638
563.8277 29752.33705
564.0316 29580.36911
564.2356 29989.63519
564.4395 29975.79092
564.6434 30139.58746
564.8473 30358.94539
565.0512 30306.45595
565.2551 30276.02314
565.4590 30368.91900
565.6628 30570.25481
565.8666 30773.59762
566.0705 30537.26203
566.2743 30582.46070
566.4780 30619.40606
566.6818 30527.18602
566.8856 31065.69941
567.0893 30647.74995
567.2930 30802.86310
567.4967 30549.26313
567.7004 30755.51406
567.9041 30876.93813
568.1078 30904.05323
568.3114 31106.94550
568.5151 31041.77913
568.7187 30740.19525
568.9223 30953.85983
569.1259 31088.20658
569.3295 31467.38800
569.5330 31412.64579
569.7366 31415.41055
569.9401 31521.00382
570.1436 31617.29931
570.3471 31684.61604
570.5506 31660.57289
570.7541 31614.22736
570.9575 31541.99550
571.1609 31236.25425
571.3644 31824.16463
571.5678 31791.25378
571.7712 32155.09590
571.9746 32058.90281
572.1779 31850.09192
572.3813 31679.39372
572.5846 31945.28151
572.7879 31871.80039
572.9912 32481.46020
573.1945 32351.29131
573.3978 31973.93259
573.6010 32325.22067
573.8043 32811.94092
574.0075 31960.86655
574.2107 32109.34428
574.4139 32088.55740
574.6171 32240.45524
574.8203 32095.33618
575.0234 32524.91810
575.2266 31966.49846
575.4297 32113.29686
575.6328 32284.48657
575.8359 32639.21524
576.0390 31954.74312
576.2420 32098.61293
576.4451 31810.40228
576.6481 32162.28427
576.8512 32659.87924
577.0542 31959.14625
577.2571 32435.52427
577.4601 32403.71931
577.6631 32288.48011
577.8660 32172.19644
578.0689 31986.58904
578.2719 32191.81598
578.4748 32035.04398
578.6776 31962.13629
578.8805 32122.65608
579.0834 31581.70561
579.2862 32108.81181
579.4890 32449.69621
579.6918 32263.55633
579.8946 31912.24777
580.0974 32354.52710
580.3002 31996.37833
580.5029 31884.23156
580.7057 32320.08027
580.9084 31820.10966
581.1111 32447.79160
581.3138 32189.76802
581.5164 31953.30954
581.7191 31762.47982
581.9217 31927.81233
582.1244 31930.31085
582.3270 31984.02907
582.5296 31889.04428
582.7322 32160.11343
582.9347 32007.43736
583.1373 31766.41192
583.3398 32000.86338
583.5424 31727.70531
583.7449 31642.85796
583.9474 31551.39568
584.1498 31508.87985
584.3523 31956.75013
584.5548 31576.62665
584.7572 31826.68364
584.9596 31959.78112
585.1620 32596.06454
585.3644 31663.39909
585.5668 31750.74495
585.7691 32076.69966
585.9715 31845.72975
586.1738 32136.58227
586.3761 32124.08966
586.5784 32279.36665
586.7807 32191.11967
586.9830 32228.08551
587.1852 32205.70121
587.3875 31897.76863
587.5897 32437.63367
587.7919 32180.57264
587.9941 31841.90004
588.1963 31958.22467
588.3984 32322.10776
588.6006 31808.25192
588.8027 32372.69258
589.0048 32023.24768
589.2069 32141.72267
589.4090 32188.33444
589.6111 32377.89442
589.8131 32334.25221
590.0152 32526.82271
590.2172 32456.22923
590.4192 32756.25665
590.6212 32451.70322
590.8232 32250.53125
591.0252 32630.63425
591.2271 32752.36551
591.4291 32687.34250
591.6310 32534.13396
591.8329 32519.65482
592.0348 32898.11945
592.2367 32868.50582
592.4385 33215.59556
592.6404 33301.32353
592.8422 33387.23582
593.0440 33475.11416
593.2458 33758.34824
593.4476 33888.84481
593.6494 33903.77450
593.8512 34027.26702
594.0529 34401.84050
594.2546 34256.22992
594.4563 34224.75264
594.6580 33970.12869
594.8597 33914.13722
595.0614 33991.79620
595.2630 34307.63394
595.4647 34251.78583
595.6663 33946.88424
595.8679 34350.96896
596.0695 34759.12913
596.2711 34542.86363
596.4727 34666.17183
596.6742 34981.27230
596.8757 35138.57678
597.0773 35000.62560
597.2788 34635.88237
597.4802 34982.80828
597.6817 35455.33611
597.8832 35199.27857
598.0846 35547.71998
598.2860 35432.86989
598.4875 35152.99448
598.6889 35722.35027
598.8902 35772.60743
599.0916 35880.92449
599.2930 35492.87537
599.4943 36035.87381
599.6956 35995.40595
599.8969 35822.57786
600.0982 35467.62392
600.2995 35588.41312
600.5008 36373.99345
600.7020 35729.41576
600.9032 36261.47805
601.1045 36104.35788
601.3057 35794.13158
601.5068 36465.70149
601.7080 36500.49648
601.9092 36187.73069
602.1103 36778.09864
602.3115 36657.45280
602.5126 36856.39249
602.7137 36702.71291
602.9147 36707.40276
603.1158 36924.71272
603.3169 37174.87211
603.5179 37023.34290
603.7189 36889.67198
603.9199 37058.34269
604.1209 37021.68405
604.3219 36982.95696
604.5229 37048.04140
604.7238 37307.80576
604.9247 37309.93565
605.1257 37525.89395
605.3266 37725.55043
605.5275 37307.47808
605.7283 37472.38053
605.9292 37665.07391
606.1300 37062.23383
606.3309 37244.54400
606.5317 37634.41582
606.7325 37761.49228
606.9332 37742.01609
607.1340 37997.09060
607.3348 37916.15488
607.5355 37373.23836
607.7362 38405.31221
607.9369 37685.53312
608.1376 37944.04821
608.3383 37696.30543
608.5390 38541.78885
608.7396 38132.99381
608.9402 38760.20472
609.1409 38730.87780
609.3415 38396.17827
609.5421 38243.87084
609.7426 38566.22112
609.9432 38088.59385
610.1437 37954.49285
610.3443 38819.00190
610.5448 38540.99014
610.7453 38862.99227
610.9457 38689.91843
611.1462 38807.92239
611.3467 38696.32857
611.5471 39030.45467
611.7475 38483.74942
611.9479 39279.85631
612.1483 38723.21840
612.3487 39320.93856
612.5491 39142.84720
612.7494 39804.23871
612.9497 39083.33323
613.1501 39481.78603
613.3504 39315.83912
613.5506 40045.26415
613.7509 39688.89711
613.9512 39475.08917
614.1514 39724.10169
614.3516 40119.62589
614.5519 39915.01334
614.7521 40130.29581
614.9522 39774.76844
615.1524 39713.65705
615.3526 40207.83191
615.5527 40764.44933
615.7528 40384.98120
615.9529 40354.22071
616.1530 40851.63136
616.3531 40794.86167
616.5532 40734.03700
616.7532 40332.30745
616.9532 40659.18374
617.1533 40476.99644
617.3533 40877.02618
617.5532 40457.31546
617.7532 40747.73791
617.9532 39869.22075
618.1531 40926.07503
618.3530 40384.57161
618.5530 40624.55259
618.7528 40803.03307
618.9527 40850.73026
619.1526 40459.24055
619.3524 40466.46988
619.5523 40806.69893
619.7521 40911.61637
619.9519 40938.83387
620.1517 40942.06966
620.3515 41306.54666
620.5512 41546.60956
620.7510 41323.42193
620.9507 41053.00813
621.1504 41083.60478
621.3501 41187.84639
621.5498 41407.53200
621.7495 41493.60813
621.9492 41124.44128
622.1488 40944.69106
622.3484 40948.58220
622.5480 40942.47926
622.7476 41613.43478
622.9472 40892.48834
623.1468 41086.14427
623.3463 42293.91336
623.5459 41961.30275
623.7454 41666.25189
623.9449 41704.73323
624.1444 41675.22200
624.3439 42090.03807
624.5433 41889.00945
624.7428 41618.63662
624.9422 41751.28356
625.1416 41858.59712
625.3410 41824.41652
625.5404 41696.21368
625.7398 41703.79116
625.9391 41956.79722
626.1385 41555.84590
626.3378 41667.58307
626.5371 42377.16329
626.7364 41709.93507
626.9357 42161.16402
627.1350 42076.64435
627.3342 41739.05718
627.5335 41546.24093
627.7327 41673.66554
627.9319 41780.77431
628.1311 42732.05579
628.3303 42019.66986
628.5294 42261.49401
628.7286 42321.86813
628.9277 42648.76490
629.1268 42345.09210
629.3259 42957.98770
629.5250 42920.87851
629.7241 42863.22819
629.9231 42090.36574
630.1222 42986.55687
630.3212 42794.78507
630.5202 42429.42745
630.7192 42970.93087
630.9182 42326.90613
631.1171 42540.55023
631.3161 42373.39502
631.5150 42225.79792
631.7140 42564.90058
631.9129 42735.10726
632.1118 43184.18585
632.3106 43002.81774
632.5095 42771.29487
632.7083 42727.89841
632.9072 42800.82658
633.1060 42923.52039
633.3048 42905.08867
633.5036 42430.98390
633.7023 42772.83085
633.9011 43226.61976
634.0998 43062.16787
634.2986 43302.43557
634.4973 42923.99142
634.6960 43091.00327
634.8947 42923.72519
635.0933 43229.93747
635.2920 42836.60460
635.4906 42520.78733
635.6892 43284.18817
635.8878 43325.14754
636.0864 43281.34149
636.2850 43006.46312
636.4836 43051.00644
636.6821 43057.17083
636.8806 43219.73859
637.0792 43218.57125
637.2777 43157.58274
637.4761 43200.22145
637.6746 42943.54952
637.8731 43323.01765
638.0715 42832.22194
638.2699 43530.39497
638.4683 43221.97088
638.6667 42488.04031
638.8651 43352.20121
639.0635 43536.33408
639.2618 43569.04014
639.4602 43399.73456
639.6585 43347.67520
639.8568 43547.88462
640.0551 43613.41962
640.2534 43447.80039
640.4516 43230.77714
640.6499 43375.50709
640.8481 44156.74573
641.0463 43894.79005
641.2445 44213.96598
641.4427 43985.84274
641.6409 43728.24923
641.8390 43988.23886
642.0372 44335.59484
642.2353 44195.41138
642.4334 43656.11977
642.6315 43885.96330
642.8296 43836.11574
643.0277 43659.04837
643.2257 44331.00739
643.4237 44352.49058
643.6218 44238.80784
643.8198 43958.62523
644.0178 44107.90168
644.2157 44025.55285
644.4137 43913.11937
644.6116 44713.46556
644.8096 44922.52221
645.0075 43791.16283
645.2054 44471.49805
645.4033 44378.33595
645.6011 44242.14603
645.7990 44232.07002
645.9968 44480.57055
646.1947 44457.94050
646.3925 44623.02726
646.5903 44403.28021
646.7881 44687.55875
646.9858 44384.43890
647.1836 44234.79382
647.3813 44046.01206
647.5790 44547.17049
647.7767 45102.60010
647.9744 44262.29804
648.1721 44238.58256
648.3698 44949.41204
648.5674 44122.85185
648.7650 44574.01936
648.9627 44251.54620
649.1603 45110.89437
649.3578 44793.07010
649.5554 44868.08720
649.7530 45299.86045
649.9505 44159.36713
650.1480 44920.31040
650.3455 45154.22939
650.5430 44532.22032
650.7405 44681.43533
650.9380 44472.50155
651.1354 44837.83870
651.3329 44500.64064
651.5303 44950.53842
651.7277 44972.04209
651.9251 45053.38741
652.1225 44867.39089
652.3198 44765.19725
652.5172 44949.08436
652.7145 45228.69353
652.9118 44975.21644
653.1091 45054.30900
653.3064 45363.98235
653.5037 45087.97760
653.7009 44719.44563
653.8982 45117.36595
654.0954 45577.44213
654.2926 45722.45880
654.4898 45554.85304
654.6870 45484.17764
654.8841 46111.47046
655.0813 45531.46523
655.2784 45561.26318
655.4755 46054.76221
655.6726 46291.89651
655.8697 45570.39712
656.0668 45966.61763
656.2639 45528.20896
656.4609 45597.90134
656.6579 45700.36122
656.8550 45893.50515
657.0520 45807.01943
657.2490 45213.06753
657.4459 45863.23617
657.6429 45966.69955
657.8398 45743.98295
658.0367 46218.41539
658.2337 46029.71555
658.4305 46255.42219
658.6274 46278.95335
658.8243 46178.82816
659.0211 46451.94527
659.2180 46355.85457
659.4148 46534.94944
659.6116 46782.73318
659.8084 46733.95057
660.0052 47094.78218
660.2019 46801.02154
660.3987 46538.57435
660.5954 46588.87246
660.7921 46634.52168
660.9888 46336.09168
661.1855 46677.91814
661.3822 46938.99320
661.5788 46327.10109
661.7755 46580.16859
661.9721 46231.85007
662.1687 46692.62256
662.3653 46566.97967
662.5619 46789.49148
662.7584 46252.96463
662.9550 46489.89413
663.1515 46896.14969
663.3480 46467.53031
663.5445 47076.57574
663.7410 46346.43392
663.9375 46543.73523
664.1340 46595.01637
664.3304 46906.61481
664.5268 46614.28775
664.7233 47094.63882
664.9197 46947.51275
665.1160 46961.99189
665.3124 46774.90994
665.5088 46920.41812
665.7051 46968.07435
665.9014 46910.52643
666.0977 46666.53143
666.2940 46620.77981
666.4903 46921.79026
666.6866 47048.74384
666.8828 46659.30210
667.0791 46733.15186
667.2753 47003.62709
667.4715 46863.83274
667.6677 47421.71991
667.8639 47635.28209
668.0600 46851.11486
668.2562 47140.90244
668.4523 47044.01303
668.6484 47128.98326
668.8445 46678.00006
669.0406 47765.30763
669.2367 47619.08266
669.4327 47715.86966
669.6287 47483.77336
669.8248 47293.08699
670.0208 47600.71238
670.2168 47416.00608
670.4128 47539.12996
670.6087 47534.54251
670.8047 47423.62452
671.0006 48137.54643
671.1965 47054.31432
671.3924 47741.75599
671.5883 47251.61563
671.7842 47332.26464
671.9801 46746.52509
672.1759 47256.48979
672.3717 46958.85849
672.5675 47655.29075
672.7633 47527.82517
672.9591 47729.24290
673.1549 48186.82056
673.3506 47521.53791
673.5464 47125.91130
673.7421 47713.28922
673.9378 47588.24025
674.1335 47322.29103
674.3292 47711.26173
674.5249 47153.90704
674.7205 46419.19825
674.9161 46809.90973
675.1118 46791.62137
675.3074 46893.93788
675.5030 46870.98015
675.6985 47395.38303
675.8941 47249.67006
676.0896 47303.08108
676.2852 47479.02208
676.4807 47307.89381
676.6762 47462.74073
676.8717 47876.10274
677.0671 47551.84785
677.2626 48161.71246
677.4580 47676.05715
677.6534 47728.91522
677.8489 47322.33199
678.0442 47378.61017
678.2396 46650.55728
678.4350 46989.06603
678.6303 47211.02489
678.8257 46956.60573
679.0210 47287.04549
679.2163 46967.64428
679.4116 47138.28104
679.6069 46945.56718
679.8021 46502.83729
679.9974 46507.79338
680.1926 46956.21661
680.3878 46793.75125
680.5830 46789.47100
680.7782 46846.69125
680.9734 46612.54698
681.1685 46603.24920
681.3636 46583.46582
681.5588 46618.81376
681.7539 46457.96630
681.9490 46582.38040
682.1441 46499.78582
682.3391 46134.28484
682.5342 46850.91006
682.7292 46902.90799
682.9242 47074.60969
683.1192 46787.91454
683.3142 47298.80083
683.5092 47204.94242
683.7041 47321.36944
683.8991 47184.70849
684.0940 47032.97448
684.2889 46472.07680
684.4838 46915.56443
684.6787 46501.58803
684.8736 45689.85514
685.0684 46617.17539
685.2633 46217.92388
685.4581 46405.49734
685.6529 46742.73635
685.8477 46993.81732
686.0425 46955.78654
686.2372 46625.30582
686.4320 46512.11459
686.6267 46526.08174
686.8214 46315.50959
687.0161 46208.99474
687.2108 46365.19331
687.4055 46108.54187
687.6002 46456.96279
687.7948 46406.54180
687.9894 46762.56069
688.1841 46364.68132
688.3787 46448.66852
688.5732 46082.28691
688.7678 46356.03889
688.9624 46082.08211
689.1569 46137.86878
689.3514 45905.26049
689.5459 45460.17544
689.7404 45651.35333
689.9349 45783.24251
690.1294 45865.57086
690.3238 45904.68706
690.5182 46028.81445
690.7127 46115.46400
690.9071 45950.13149
691.1015 45598.57717
691.2958 45842.94080
691.4902 46124.67986
691.6845 46979.46106
691.8789 46164.63573
692.0732 46166.02835
692.2675 45990.16927
692.4618 46193.73737
692.6560 46029.24452
692.8503 46538.30811
693.0445 46459.66611
693.2387 45771.52813
693.4329 46223.31004
693.6271 46054.14782
693.8213 46129.61547
694.0155 46333.69555
694.2096 46072.41570
694.4038 45789.73457
694.5979 45807.77718
694.7920 45752.11339
694.9861 45713.93925
695.1801 45610.74210
695.3742 45500.06987
695.5682 45545.69862
695.7623 45383.99100
695.9563 45161.37680
696.1503 45615.18620
696.3443 44927.74453
696.5382 45493.39350
696.7322 45401.19394
696.9261 45688.29868
697.1201 45180.73011
697.3140 45517.58001
697.5079 45748.38608
697.7017 45045.35937
697.8956 45122.62923
698.0894 44845.19091
698.2833 45282.73943
698.4771 45346.02166
698.6709 45757.58146
698.8647 44980.13157
699.0585 45659.77048
699.2522 44708.79619
699.4460 45138.27571
699.6397 45122.38348
699.8334 44946.56536
700.0271 44742.93583
700.2208 44954.92107
700.4144 45313.68424
700.6081 45202.66385
700.8017 44932.82349
700.9954 45446.08542
701.1890 45188.20519
701.3826 44634.57780
701.5761 44630.25659
701.7697 44822.51989
701.9632 44550.91828
702.1568 44808.32747
702.3503 44677.40083
702.5438 44300.73841
702.7373 43788.70527
702.9308 44637.60879
703.1242 44708.34563
703.3177 44405.32818
703.5111 44790.89925
703.7045 44870.25804
703.8979 45005.32158
704.0913 44807.44684
704.2847 45000.65221
704.4780 45226.37933
704.6713 44198.52429
704.8647 44507.43990
705.0580 44262.64620
705.2513 43608.70929
705.4445 44227.54401
705.6378 44282.96205
705.8311 43449.29541
706.0243 43472.31458
706.2175 44109.00758
706.4107 43887.13065
706.6039 43849.81665
706.7971 43823.62313
706.9902 44106.93913
707.1834 44003.88534
707.3765 43527.40493
707.5696 43608.21778
707.7627 43751.98519
707.9558 43869.02660
708.1489 43203.27292
708.3419 42791.91792
708.5349 43015.80186
708.7280 42965.40135
708.9210 43659.86755
709.1140 43481.18228
709.3069 43183.59194
709.4999 42997.67734
709.6929 43303.64387
709.8858 42996.32568
710.0787 43133.17095
710.2716 42439.15530
710.4645 43022.25296
710.6574 43018.66902
710.8502 43328.93628
711.0431 42829.17047
711.2359 42641.31030
711.4287 42552.83805
711.6215 42777.27494
711.8143 42755.81223
712.0071 42725.64565
712.1998 42587.57160
712.3925 42842.64610
712.5853 43007.54855
712.7780 43003.39117
712.9707 42668.28204
713.1633 42784.68859
713.3560 42785.15962
713.5487 42615.60829
713.7413 42696.33922
713.9339 42589.70148
714.1265 42337.90372
714.3191 42392.01106
714.5117 41920.22050
714.7042 42320.02496
714.8968 42522.54859
715.0893 43028.56071
715.2818 42896.22097
715.4743 42935.27573
715.6668 42489.98588
715.8592 42948.77184
716.0517 42587.55112
716.2441 42653.31139
716.4366 42269.15341
716.6290 42478.90637
716.8214 42494.22518
717.0137 42611.81955
717.2061 42489.59677
717.3984 42414.41584
717.5908 42072.54841
717.7831 41926.73304
717.9754 42522.32331
718.1677 41539.13447
718.3600 42152.62399
718.5522 41803.05621
718.7445 41756.36252
718.9367 41427.64305
719.1289 41624.57573
719.3211 41390.45194
719.5133 41463.23675
719.7054 41370.07465
719.8976 41746.02028
720.0897 41581.09735
720.2818 41527.13338
720.4740 41593.67188
720.6660 41696.52087
720.8581 41674.42329
721.0502 41398.86909
721.2422 41161.36616
721.4343 41348.24331
721.6263 41525.55644
721.8183 41369.64458
722.0103 41780.73335
722.2022 41524.94205
722.3942 41730.49667
722.5861 41454.00041
722.7781 41930.33746
722.9700 41458.83362
723.1619 41213.91704
723.3538 41041.51903
723.5456 41253.50427
723.7375 41024.58233
723.9293 41268.45444
724.1211 40898.48889
724.3129 40918.00603
724.5047 40419.46900
724.6965 40458.38040
724.8883 40694.12209
725.0800 40538.90654
725.2718 40914.72928
725.4635 40557.62497
725.6552 40516.15360
725.8469 40634.54668
726.0385 40954.93091
726.2302 40603.80667
726.4218 39954.19098
726.6135 39998.05847
726.8051 39792.03281
726.9967 40214.56972
727.1882 40491.76230
727.3798 40783.76168
727.5714 40467.82154
727.7629 40872.99168
727.9544 40875.57212
728.1459 40235.58188
728.3374 40079.52667
728.5289 40756.66705
728.7204 40284.99937
728.9118 40768.87295
729.1032 40997.01667
729.2946 40757.44528
729.4860 39991.97600
729.6774 40338.30800
729.8688 40299.25323
730.0602 39985.36106
730.2515 40291.67575
730.4428 40535.58883
730.6341 40292.14678
730.8254 40103.09879
731.0167 40527.43791
731.2080 40476.70973
731.3992 40361.12237
731.5905 40198.43173
731.7817 40192.77934
731.9729 39627.56044
732.1641 39949.74689
732.3553 39439.04492
732.5464 39818.86120
732.7376 39697.27330
732.9287 39768.17398
733.1198 39704.09303
733.3109 39820.29478
733.5020 39590.71748
733.6931 40097.01632
733.8841 39948.55906
734.0752 40261.12005
734.2662 39781.30146
734.4572 39688.44655
734.6482 39141.41362
734.8392 39173.19810
735.0302 39057.11923
735.2211 38863.09467
735.4120 38840.81277
735.6030 39375.00494
735.7939 39270.23085
735.9848 39315.12233
736.1756 38908.45717
736.3665 39114.58523
736.5574 38673.41180
736.7482 38701.73521
736.9390 38556.26799
737.1298 38819.39101
737.3206 38914.53964
737.5114 39171.04773
737.7021 38583.17830
737.8929 38618.71056
738.0836 38723.46416
738.2743 38971.86229
738.4650 38953.34865
738.6557 38620.59469
738.8463 38358.35229
739.0370 38210.34559
739.2276 38019.41346
739.4182 38024.67674
739.6088 38433.86090
739.7994 38125.58016
739.9900 38323.96689
740.1806 38242.17102
740.3711 38398.86111
740.5617 38673.41180
740.7522 38439.02178
740.9427 38391.57034
741.1332 38400.27421
741.3236 38011.26255
741.5141 38197.99634
741.7045 38508.57080
741.8949 38480.12451
742.0854 38327.69420
742.2758 38370.55818
742.4661 37855.22781
742.6565 37569.33137
742.8469 37827.08872
743.0372 38149.02940
743.2275 37735.31924
743.4178 38083.08481
743.6081 38136.12720
743.7984 38058.95974
743.9886 38075.24109
744.1789 37821.62064
744.3691 37616.74185
744.5593 37638.61415
744.7495 37340.71662
744.9397 37516.47330
745.1299 37200.67651
745.3200 36740.23170
745.5102 37095.28804
745.7003 37161.72415
745.8904 37274.66963
746.0805 37317.84081
746.2706 37215.17613
746.4607 37242.80323
746.6507 37181.40513
746.8408 36808.51098
747.0308 37242.82371
747.2208 36842.99877
747.4108 36960.55218
747.6007 37142.00221
747.7907 37553.80777
747.9806 37287.05984
748.1706 37296.97200
748.3605 36965.52874
748.5504 36907.18211
748.7403 37341.80204
748.9302 36819.01706
749.1200 36825.98015
749.3098 36770.58260
749.4997 36525.25642
749.6895 36721.28799
749.8793 36563.47152
750.0691 37017.13755
750.2588 36682.66330
750.4486 36491.87453
750.6383 36622.96501
750.8280 36066.92101
751.0177 35959.79177
751.2074 36080.29425
751.3971 36194.46851
751.5868 36208.96813
751.7764 35991.55576
751.9660 35730.48071
752.1557 35867.26454
752.3453 36049.22656
752.5348 36290.33392
752.7244 36542.95087
752.9140 36568.16137
753.1035 36263.52601
753.2930 36350.81044
753.4825 35989.52827
753.6720 36312.18575
753.8615 36290.12913
754.0510 35894.13389
754.2404 35836.56549
754.4299 35868.28852
754.6193 35738.75450
754.8087 35620.73006
754.9981 35707.01099
755.1875 35403.03098
755.3768 35262.56081
755.5662 35448.31157
755.7555 35436.43335
755.9448 35532.85172
756.1341 35480.42372
756.3234 34999.02819
756.5127 35029.21525
756.7019 35350.33675
756.8912 35455.49994
757.0804 35235.44570
757.2696 35316.79102
757.4588 35062.08515
757.6480 34826.73258
757.8371 34508.53967
758.0263 34533.89353
758.2154 34690.39930
758.4045 34420.74325
758.5936 34197.98569
758.7827 34579.46083
758.9718 34839.57334
759.1609 34452.69157
759.3499 34437.45468
759.5389 33877.82674
759.7280 34303.33320
759.9170 34405.89548
760.1059 34356.60087
760.2949 34292.19225
760.4839 34717.33009
760.6728 34470.69321
760.8617 34353.54940
761.0506 33997.24380
761.2395 33685.15384
761.4284 34059.50205
761.6173 33865.43653
761.8061 33911.29055
761.9950 33887.28835
762.1838 33568.52202
762.3726 34067.85776
762.5614 33642.24889
762.7502 33994.49952
762.9389 33303.55582
763.1277 33500.30418
763.3164 33890.79038
763.5051 33693.55051
763.6938 33952.22944
763.8825 33662.87194
764.0712 34352.97597
764.2598 33873.07545
764.4484 34081.19003
764.6371 34100.50238
764.8257 33812.31222
765.0143 34003.59250
765.2029 33606.30704
765.3914 33713.72300
765.5800 33990.58790
765.7685 33461.45421
765.9570 33510.72834
766.1455 33091.91873
766.3340 32771.57546
766.5225 32987.32897
766.7110 32901.62147
766.8994 32670.26244
767.0878 32419.89826
767.2762 32701.43253
767.4646 32595.73686
767.6530 32764.50997
767.8414 32846.79735
768.0298 32562.47785
768.2181 32393.25419
768.4064 32472.67442
768.5947 32519.22475
768.7830 32399.45954
768.9713 32336.50498
769.1596 32067.52476
769.3478 31941.49276
769.5360 32168.34626
769.7243 32059.94728
769.9125 31823.98032
770.1007 31593.29712
770.2888 31597.78217
770.4770 31717.40402
770.6651 31728.31970
770.8533 31422.57844
771.0414 31274.96085
771.2295 31567.45175
771.4176 31803.88974
771.6056 31851.27974
771.7937 31560.12002
771.9817 31291.16029
772.1698 31810.56612
772.3578 31793.77278
772.5458 31400.48086
772.7337 30905.79401
772.9217 31295.37910
773.1096 31094.73960
773.2976 31407.68971
773.4855 31629.93528
773.6734 30939.48309
773.8613 30994.92161
774.0492 31146.24602
774.2370 30944.80781
774.4249 31063.32376
774.6127 31311.86525
774.8005 31084.27448
774.9883 31077.33187
775.1761 31223.49540
775.3639 30758.11498
775.5516 30868.93057
775.7394 30586.82288
775.9271 30658.93185
776.1148 30668.10675
776.3025 29897.27180
776.4902 30123.30611
776.6778 30093.26241
776.8655 30480.98385
777.0531 30628.00753
777.2407 30586.82287
777.4283 30257.55046
777.6159 30398.83982
777.8035 30090.60005
777.9911 29904.23489
778.1786 30217.86082
778.3661 29760.59036
778.5536 30065.73771
778.7411 30120.97142
778.9286 30402.21897
779.1161 30174.83300
779.3036 29678.22106
779.4910 29680.90390
779.6784 29827.41558
779.8658 30059.32756
780.0532 29527.06049
780.2406 29847.95671
780.4280 29551.32892
780.6153 29721.59704
780.8026 29712.83173
780.9900 29899.66792
781.1773 29319.19166
781.3646 29680.37143
781.5518 29509.73467
781.7391 29356.99716
781.9263 29501.19464
782.1136 29384.21467
782.3008 29070.60921
782.4880 29198.66870
782.6752 29085.43650
782.8623 29020.31110
783.0495 29329.18575
783.2366 28773.71518
783.4237 28895.58980
783.6108 29177.84085
783.7979 28944.41338
783.9850 29007.61369
784.1721 29198.89397
784.3591 28703.14218
784.5462 28597.24171
784.7332 28712.62427
784.9202 28902.69625
785.1072 28429.94315
785.2941 28371.06405
785.4811 28232.90807
785.6681 28398.36347
785.8550 28440.94074
786.0419 28206.38688
786.2288 28042.44698
786.4157 27964.60369
786.6025 28002.24535
786.7894 28189.96217
786.9762 28111.40209
787.1631 27522.87731
787.3499 27803.32615
787.5367 27942.91570
787.7234 27557.26270
787.9102 27906.37994
788.0970 27997.76030
788.2837 28004.76435
788.4704 27465.14507
788.6571 27182.46394
788.8438 27130.95753
789.0305 27115.51584
789.2171 27039.94580
789.4038 26939.45197
789.5904 27187.44051
789.7770 27224.95929
789.9636 27219.83937
790.1502 27289.40887
790.3368 27285.64061
790.5233 27382.44809
790.7099 27077.58746
790.8964 26601.61905
791.0829 26555.58071
791.2694 26444.76512
791.4559 26541.47020
791.6423 26493.77301
791.8288 26573.25468
792.0152 26813.46093
792.2016 26817.02440
792.3880 27060.89652
792.5744 26586.13640
792.7608 26121.26797
792.9471 26184.81645
793.1335 26718.70142
793.3198 26361.08512
793.5061 26457.56492
793.6924 25994.82638
793.8787 25880.09917
794.0650 25868.73295
794.2512 26232.69795
794.4375 26311.09420
794.6237 26428.75000
794.8099 26342.38716
794.9961 25867.70896
795.1823 25841.88408
795.3684 25942.58270
795.5546 25558.26089
795.7407 25554.90222
795.9268 25412.48647
796.1129 25710.40448
796.2990 25805.81935
796.4851 26184.83693
796.6712 25895.52038
796.8572 25822.14166
797.0432 25540.83267
797.2292 25800.35127
797.4152 25771.82307
797.6012 25214.83701
797.7872 24968.05677
797.9731 25050.81519
798.1591 24864.06092
798.3450 24770.96026
798.5309 25021.81595
798.7168 24992.34568
798.9027 24922.24371
799.0885 25132.34483
799.2744 24983.94901
799.4602 25274.33050
799.6460 25179.22283
799.8318 25657.25970
800.0176 25113.11440
800.2034 25227.04290
800.3892 24689.28727
800.5749 24658.50630
800.7606 24542.46839
800.9463 24756.21488
801.1320 24624.61241
801.3177 24698.62600
801.5034 24640.85280
801.6890 25071.41775
801.8747 24607.42995
802.0603 24299.82505
802.2459 24271.27636
802.4315 24395.50615
802.6171 23983.33196
802.8026 24355.71412
802.9882 24259.04999
803.1737 24021.95665
803.3592 24264.12895
803.5447 24141.16891
803.7302 24438.71829
803.9157 24329.47964
804.1012 24346.27298
804.2866 23848.61657
804.4720 23954.57848
804.6574 23890.35418
804.8428 23707.18385
805.0282 23731.69804
805.2136 23510.57885
805.3989 23803.62270
805.5843 23575.90905
805.7696 23513.05689
805.9549 23415.94222
806.1402 23222.38869
806.3255 23115.15705
806.5107 23271.31466
806.6960 23505.72517
806.8812 23066.12867
807.0664 23199.61528
807.2516 22939.68708
807.4368 22809.80490
807.6220 22638.18512
807.8072 22793.56451
807.9923 22891.58030
808.1774 22774.60032
808.3625 23049.70396
808.5476 23087.67330
808.7327 23209.97800
808.9178 22792.13093
809.1028 22736.42618
809.2879 22684.34634
809.4729 22663.25226
809.6579 22477.35814
809.8429 22588.21469
810.0279 22514.50829
810.2128 22302.27729
810.3978 22436.33732
810.5827 22591.22520
810.7676 22713.20222
810.9525 22836.08034
811.1374 22520.95939
811.3223 22554.64848
811.5072 22292.91807
811.6920 22346.73869
811.8768 22374.44771
812.0616 22281.92048
812.2464 22332.21859
812.4312 22094.59278
812.6160 22263.59116
812.8007 22436.91075
812.9855 22449.40336
813.1702 22229.94303
813.3549 22233.69082
813.5396 21858.81014
813.7243 21979.37406
813.9089 21935.07649
814.0936 21986.17331
814.2782 21974.95044
814.4628 21823.21644
814.6474 21871.11843
814.8320 21844.47435
815.0166 21554.95301
815.2012 21691.94164
815.3857 21507.56302
815.5702 21497.09790
815.7547 21508.77132
815.9392 21616.39207
816.1237 21392.75389
816.3082 21213.04463
816.4926 21390.82880
816.6771 21543.70966
816.8615 21183.53340
817.0459 21374.34265
817.2303 21239.91398
817.4147 21389.92769
817.5990 21376.80021
817.7834 21045.54127
817.9677 21088.91724
818.1520 21298.79308
818.3363 21226.66362
818.5206 21005.64683
818.7049 20837.50860
818.8891 20920.12366
819.0734 21034.68703
819.2576 21150.72494
819.4418 20771.74832
819.6260 20666.13458
819.8102 20763.76125
819.9944 20761.95903
820.1785 20539.24243
820.3627 20715.73638
820.5468 20671.45929
820.7309 20449.78716
820.9150 20256.39747
821.0991 20097.94613
821.2831 20416.67150
821.4672 20277.14339
821.6512 20148.38760
821.8352 20195.85951
822.0192 20491.09469
822.2032 20203.41652
822.3872 20332.29519
822.5711 20109.94722
822.7551 20009.86299
822.9390 20049.10207
823.1229 20145.93003
823.3068 20111.91327
823.4907 19896.32360
823.6745 19886.00184
823.8584 19777.04990
824.0422 19861.34430
824.2261 19973.94162
824.4099 19958.99145
824.5937 20079.16625
824.7774 20038.61647
824.9612 19980.18792
825.1449 19650.99743
825.3287 19655.23672
825.5124 19627.95778
825.6961 19841.54044
825.8798 19762.12021
826.0634 19824.17366
826.2471 19713.05088
826.4307 20005.62369
826.6144 19817.53824
826.7980 19951.76212
826.9816 19712.43649
827.1652 19809.42829
827.3487 19737.85178
827.5323 19392.42089
827.7158 19250.61953
827.8993 19597.83216
828.0828 19331.08423
828.2663 19059.99460
828.4498 19256.41529
828.6333 19448.63763
828.8167 19184.59302
829.0001 19285.29165
829.1836 19344.02739
829.3670 19313.43074
829.5504 19547.63644
829.7337 19426.06902
829.9171 19328.77002
830.1004 19362.23383
830.2837 19293.85215
830.4671 19083.52576
830.6504 18938.20190
830.8336 19067.08057
831.0169 18897.83644
831.2002 19278.41047
831.3834 19119.48810
831.5666 18860.31765
831.7498 18902.54677
831.9330 19247.15847
832.1162 19132.32886
832.2993 18992.08396
832.4825 19102.28516
832.6656 18897.77500
832.8487 18499.09692
833.0318 18689.37370
833.2149 18577.32933
833.3980 18594.96234
833.5811 18715.17810
833.7641 18655.37742
833.9471 18499.17884
834.1301 18275.80689
834.3131 18098.10464
834.4961 18320.55501
834.6791 18401.08114
834.8620 18757.44818
835.0450 18593.99979
835.2279 18725.64322
835.4108 18678.45802
835.5937 18682.75876
835.7766 18422.99440
835.9594 18401.44977
836.1423 18485.64177
836.3251 18748.12992
836.5079 18680.21928
836.6907 18227.92538
836.8735 18156.12360
837.0563 18156.36935
837.2390 18285.26850
837.4218 18120.55038
837.6045 18431.30916
837.7872 18447.11948
837.9699 18323.31976
838.1526 18109.38895
838.3352 18019.27832
838.5179 17983.97134
838.7005 18069.31020
838.8831 18183.21822
839.0658 18222.45730
839.2483 18209.88278
839.4309 18240.88902
839.6135 18188.87062
839.7960 17735.63465
839.9786 17833.22036
840.1611 17684.31255
840.3436 17917.02324
840.5261 17671.71755
840.7085 17614.21058
840.8910 17496.32950
841.0734 17516.58391
841.2559 17468.70240
841.4383 17662.35833
841.6207 17855.01075
841.8030 17684.35351
841.9854 17633.52293
842.1678 17448.63231
842.3501 17553.79551
842.5324 17434.56277
842.7147 17630.51242
842.8970 17775.46764
843.0793 17686.70868
843.2615 17648.57550
843.4438 17693.18026
843.6260 17694.79815
843.8082 17625.04434
843.9904 17639.83067
844.1726 17430.97882
844.3548 17365.30046
844.5369 17235.90980
844.7191 17275.51751
844.9012 17171.97221
845.0833 17191.81703
845.2654 17486.47877
845.4475 17568.47944
845.6296 17272.71180
845.8116 17181.78198
845.9936 17150.85765
846.1757 17204.39156
846.3577 17187.41390
846.5397 17280.65791
846.7216 17123.72207
846.9036 17002.68712
847.0855 16802.10906
847.2675 16975.16242
847.4494 16905.65436
847.6313 17181.22903
847.8132 17215.90114
847.9950 17078.21620
848.1769 17058.08467
848.3587 17225.85427
848.5406 16986.20097
848.7224 16952.06133
848.9042 16869.34387
849.0860 16974.26131
849.2677 16809.23599
849.4495 16653.56988
849.6312 16594.75222
849.8129 16676.05658
849.9946 16841.43006
850.1763 16753.24452
850.3580 16568.59966
850.5397 16482.38018
850.7213 16231.62688
850.9029 16267.38442
851.0845 16389.58671
851.2661 16351.47401
851.4477 16342.66775
851.6293 16407.52692
851.8109 16414.16234
851.9924 16562.23048
852.1739 16598.50000
852.3554 16497.20747
852.5369 16351.41257
852.7184 16177.90866
852.8999 16109.69082
853.0813 16144.89540
853.2628 16184.48264
853.4442 16266.91338
853.6256 16197.28245
853.8070 16362.90168
853.9883 16355.42659
854.1697 16218.47892
854.3510 16055.03054
854.5324 16055.66541
854.7137 16065.41374
854.8950 15979.48097
855.0763 15973.39850
855.2575 16017.36839
855.4388 16067.83034
855.6200 16067.50267
855.8013 16054.25231
855.9825 15992.64941
856.1637 16015.79145
856.3449 15898.50428
856.5260 15943.10904
856.7072 15916.28065
856.8883 16123.80133
857.0694 16040.94051
857.2505 16004.13851
857.4316 15982.18429
857.6127 15878.84378
857.7938 16006.61655
857.9748 15935.30628
858.1558 15788.15973
858.3368 15726.14723
858.5178 15663.33603
858.6988 15831.57667
858.8798 15738.45553
859.0607 15875.38272
859.2417 15742.28523
859.4226 15696.34929
859.6035 15758.13651
859.7844 15798.17430
859.9653 15749.88319
860.1462 15566.18040
860.3270 15486.80113
860.5078 15410.65765
860.6887 15454.60706
860.8695 15367.50695
861.0503 15496.95905
861.2310 15257.73582
861.4118 15219.04969
861.5925 15132.56397
861.7733 15077.90369
861.9540 14962.11153
862.1347 14838.39374
862.3154 14737.30600
862.4960 14859.24206
862.6767 14899.38225
862.8573 14840.09355
863.0380 14813.79764
863.2186 14886.95108
863.3992 14821.45704
863.5797 14801.24359
863.7603 14820.31018
863.9409 14729.64660
864.1214 14786.31390
864.3019 14875.76917
864.4824 14881.79020
864.6629 14736.67113
864.8434 14529.68293
865.0238 14707.81525
865.2043 14759.11687
865.3847 14392.42807
865.5651 14288.32981
865.7455 14519.58645
865.9259 14501.21617
866.1063 14384.85058
866.2866 14377.92845
866.4670 14410.55259
866.6473 14280.97761
866.8276 14249.41841
867.0079 14219.41567
867.1882 14142.94451
867.3684 14037.26933
867.5487 14020.20975
867.7289 14003.02729
867.9091 14077.10232
868.0893 13900.71077
868.2695 13686.43180
868.4497 13623.10860
868.6299 13721.39062
868.8100 13768.59630
868.9901 13671.91170
869.1703 13790.22285
869.3504 13794.38023
869.5304 13780.22877
869.7105 13855.14346
869.8906 13780.31069
870.0706 13683.64656
870.2506 13848.65140
870.4306 13815.37191
870.6106 13762.57528
870.7906 13880.33348
870.9706 13712.37956
871.1505 13571.02876
871.3305 13615.92023
871.5104 13432.93423
871.6903 13363.81528
871.8702 13477.86666
872.0500 13431.54161
872.2299 13447.18809
872.4097 13304.11699
872.5896 13407.41654
872.7694 13423.67741
872.9492 13281.99893
873.1290 13009.16853
873.3087 13052.56499
873.4885 13343.72471
873.6682 13286.54542
873.8480 13193.75196
874.0277 13248.35080
874.2074 13008.77942
874.3870 13113.00055
874.5667 13136.92082
874.7463 13262.64562
874.9260 13067.90428
875.1056 13050.61942
875.2852 12965.17816
875.4648 12890.26347
875.6444 12868.08397
875.8239 13042.22275
876.0035 12890.52970
876.1830 12882.97270
876.3625 12787.55783
876.5420 12791.57185
876.7215 12787.76263
876.9010 12571.14898
877.0804 12665.72417
877.2599 12609.60983
877.4393 12755.07705
877.6187 12772.91486
877.7981 12814.36575
877.9775 12604.51039
878.1568 12886.55664
878.3362 12721.69516
878.5155 12650.48729
878.6948 12401.55668
878.8741 12418.69818
879.0534 12376.87866
879.2327 12333.85084
879.4119 12262.41769
879.5912 12159.67110
879.7704 12330.08258
879.9496 12450.72841
880.1288 12279.19055
880.3080 12069.00752
880.4872 12193.66738
880.6663 12181.33860
880.8455 12228.03229
881.0246 12270.71196
881.2037 12261.53706
881.3828 12170.91444
881.5619 12083.05658
881.7409 12064.27671
881.9200 11920.61170
882.0990 12053.83207
882.2780 11985.65519
882.4570 11944.36814
882.6360 11963.08658
882.8150 11765.37567
882.9940 11691.81263
883.1729 11712.41520
883.3518 11954.07551
883.5308 11899.53810
883.7096 11915.75802
883.8885 11718.35431
884.0674 11670.22704
884.2463 11642.12891
884.4251 11661.70749
884.6039 11536.28989
884.7827 11615.75108
884.9615 11532.23491
885.1403 11574.17731
885.3191 11609.13614
885.4978 11368.52029
885.6765 11448.57539
885.8553 11563.50739
886.0340 11517.44858
886.2127 11480.99473
886.3913 11351.27639
886.5700 11298.68455
886.7486 11203.08537
886.9273 11177.01473
887.1059 11057.27000
887.2845 11087.14986
887.4630 11180.37340
887.6416 11235.62760
887.8202 11234.39881
887.9987 11194.17671
888.1772 11203.69976
888.3557 11214.45160
888.5342 11068.02183
888.7127 11196.90051
888.8912 11138.65628
889.0696 11112.23748
889.2481 10933.26549
889.4265 10858.39175
889.6049 10813.66411
889.7833 10845.28475
889.9616 10753.51527
890.1400 10736.08706
890.3183 10443.43232
890.4967 10585.31560
890.6750 10798.12003
890.8533 10690.17160
891.0316 10638.25559
891.2098 10558.44625
891.3881 10519.00237
891.5663 10501.38984
891.7445 10511.48632
891.9227 10396.92295
892.1009 10388.83348
892.2791 10565.59366
892.4573 10594.92057
892.6354 10446.03324
892.8136 10466.77917
892.9917 10437.63657
893.1698 10297.63743
893.3479 10475.33968
893.5259 10622.15856
893.7040 10474.06994
893.8820 10377.40581
894.0601 10383.16060
894.2381 10460.47142
894.4161 10499.25995
894.5941 10487.34077
894.7720 10482.42565
894.9500 10453.42641
895.1279 10516.23761
895.3058 10376.15655
895.4838 10398.06982
895.6616 10320.49276
895.8395 10267.30701
896.0174 10202.50928
896.1952 10227.98601
896.3731 10265.56624
896.5509 10226.75723
896.7287 10229.11239
896.9065 10197.06168
897.0842 10207.71112
897.2620 10122.08555
897.4397 10058.39372
897.6175 10102.30217
897.7952 10118.56304
897.9729 10283.15829
898.1506 10220.55188
898.3282 10090.52635
898.5059 10052.92564
898.6835 10069.20699
898.8611 10169.25027
899.0388 10028.98489
899.2163 9867.80975
899.3939 9814.31680
899.5715 9922.51099
899.7490 9881.40826
899.9266 9882.90328
900.1041 9983.60190
900.2816 9978.64582
900.4591 9896.29699
900.6365 9934.20489
900.8140 9795.70077
900.9914 9836.55774
901.1689 9807.84522
901.3463 9803.31921
901.5237 9797.97401
901.7011 9756.35929
901.8784 9725.96743
902.0558 9632.39574
902.2331 9740.97904
902.4104 9788.86055
902.5878 9785.09229
902.7650 9723.16171
902.9423 9647.65311
903.1196 9725.55784
903.2968 9859.92507
903.4741 9818.24890
903.6513 9674.87061
903.8285 9603.72418
904.0057 9651.74904
904.1828 9495.93958
904.3600 9398.39483
904.5371 9410.45737
904.7143 9447.58704
904.8914 9493.03147
905.0685 9578.49320
905.2456 9560.77827
905.4226 9579.76294
905.5997 9605.71071
905.7767 9688.94016
905.9537 9456.63906
906.1307 9411.91142
906.3077 9335.31739
906.4847 9280.43183
906.6617 9276.88884
906.8386 9362.67825
907.0156 9282.50028
907.1925 9198.96363
907.3694 9189.89113
907.5463 9237.69072
907.7231 9265.64550
907.9000 9277.01172
908.0768 9193.27028
908.2537 9042.19162
908.4305 9091.77295
908.6073 9281.82445
908.7841 9273.07962
908.9608 9133.20336
909.1376 9064.47353
909.3143 9040.73757
909.4910 8982.39094
909.6677 8973.07268
909.8444 9016.63298
910.0211 9037.11266
910.1978 8956.83229
910.3744 9024.94773
910.5510 9065.88662
910.7277 9078.21540
910.9043 8961.11254
911.0808 8993.28613
911.2574 8992.54886
911.4340 8904.40429
911.6105 8769.29979
911.7870 8816.54643
911.9636 8842.47371
912.1401 8821.15436
912.3165 8846.71301
912.4930 8819.35215
912.6695 8715.76589
912.8459 8711.50611
913.0223 8713.08305
913.1987 8721.58212
913.3751 8698.07144
913.5515 8595.38628
913.7279 8634.17481
913.9042 8638.78274
914.0805 8579.28925
914.2568 8552.80901
914.4331 8521.14742
914.6094 8516.15037
914.7857 8487.70409
914.9620 8473.40926
915.1382 8414.67352
915.3144 8339.67690
915.4906 8472.59008
915.6668 8517.35867
915.8430 8401.85324
916.0192 8210.32720
916.1953 8341.76583
916.3715 8416.41429
916.5476 8337.03503
916.7237 8375.84403
916.8998 8354.19700
917.0759 8283.11201
917.2519 8241.66112
917.4280 8342.58502
917.6040 8286.04060
917.7800 8290.85333
917.9560 8247.66167
918.1320 8240.47330
918.3080 8210.79823
918.4839 8143.13334
918.6599 8079.97399
918.8358 8120.52377
919.0117 8157.32577
919.1876 8068.25961
919.3635 8070.81957
919.5394 8140.65530
919.7152 8068.21865
919.8911 8023.96204
920.0669 7990.72351
920.2427 7914.51859
920.4185 7852.75185
920.5942 7844.62142
920.7700 7804.25595
920.9458 7866.06365
921.1215 7884.12674
921.2972 7860.02214
921.4729 7862.68450
921.6486 7730.38572
921.8243 7592.00447
921.9999 7634.31551
922.1756 7641.56532
922.3512 7650.88357
922.5268 7587.08935
922.7024 7708.34958
922.8780 7746.89235
923.0535 7740.48221
923.2291 7713.48998
923.4046 7751.64364
923.5801 7886.80957
923.7557 7729.01358
923.9311 7709.00493
924.1066 7657.31420
924.2821 7743.57464
924.4575 7721.66137
924.6330 7713.59238
924.8084 7592.96702
924.9838 7509.00030
925.1592 7484.34276
925.3345 7487.59903
925.5099 7483.09350
925.6852 7492.84183
925.8606 7425.38174
926.0359 7362.11998
926.2112 7360.46113
926.3864 7329.61872
926.5617 7244.64849
926.7370 7256.07616
926.9122 7225.39759
927.0874 7189.12806
927.2626 7159.16628
927.4378 7165.24875
927.6130 7157.91702
927.7882 7112.18588
927.9633 7082.08073
928.1384 6986.68635
928.3135 6879.47519
928.4886 6854.30565
928.6637 6894.95783
928.8388 6927.43861
929.0139 6940.83233
929.1889 6886.64308
929.3639 6876.89475
929.5389 6891.86540
929.7139 6895.67462
929.8889 6904.58328
930.0639 6927.76629
930.2388 6852.23720
930.4138 6815.76288
930.5887 6828.68556
930.7636 6894.93735
930.9385 6846.60529
931.1134 6713.26204
931.2882 6697.79988
931.4631 6605.90752
931.6379 6596.09775
931.8127 6570.78486
931.9875 6584.71104
932.1623 6581.16806
932.3371 6575.14703
932.5118 6576.90828
932.6866 6562.71586
932.8613 6512.49967
933.0360 6505.61849
933.2107 6442.15194
933.3854 6397.75198
933.5600 6414.99587
933.7347 6298.58933
933.9093 6309.21829
934.0839 6331.11107
934.2586 6360.74518
934.4331 6340.49077
934.6077 6278.06868
934.7823 6252.71483
934.9568 6253.84121
935.1314 6218.84143
935.3059 6203.60454
935.4804 6158.89738
935.6549 6164.67265
935.8293 6190.94809
936.0038 6164.24258
936.1782 6175.21969
936.3526 6175.05585
936.5271 6095.36939
936.7015 6051.54286
936.8758 6080.99265
937.0502 6087.68951
937.2246 6068.70484
937.3989 6116.44299
937.5732 6036.81796
937.7475 5990.30859
937.9218 5974.76451
938.0961 5952.17542
938.2703 5951.80678
938.4446 5919.94039
938.6188 5934.87008
938.7930 5876.89208
938.9672 5842.50669
939.1414 5886.74281
939.3156 5788.39935
939.4897 5715.86030
939.6639 5710.28983
939.8380 5756.14385
940.0121 5733.08372
940.1862 5739.84202
940.3603 5783.42279
940.5344 5798.53680
940.7084 5803.34953
940.8824 5777.66800
941.0565 5760.87465
941.2305 5733.08372
941.4045 5648.37973
941.5784 5647.99062
941.7524 5655.03563
941.9263 5716.65901
942.1003 5717.80587
942.2742 5678.73063
942.4481 5583.27480
942.6220 5568.11984
942.7958 5582.25082
942.9697 5592.49066
943.1435 5607.91187
943.3174 5602.77147
943.4912 5592.22443
943.6650 5548.50030
943.8387 5508.66730
944.0125 5445.87658
944.1863 5463.55055
944.3600 5463.14096
944.5337 5422.14062
944.7074 5458.79926
944.8811 5422.65262
945.0548 5384.45800
945.2284 5314.31507
945.4021 5301.69958
945.5757 5355.74548
945.7493 5305.57024
945.9229 5200.12033
946.0965 5169.76943
946.2701 5138.59935
946.4436 5180.66463
946.6172 5191.41646
946.7907 5184.45337
946.9642 5148.45008
947.1377 5139.93053
947.3112 5161.24988
947.4847 5187.99636
947.6581 5212.16239
947.8315 5182.38492
948.0050 5106.89679
948.1784 5088.30124
948.3518 5117.60767
948.5251 5090.45160
948.6985 5128.95342
948.8718 5104.13204
949.0452 5054.50975
949.2185 5038.96567
949.3918 5023.64686
949.5651 5023.40111
949.7383 4960.91758
949.9116 4987.04966
950.0848 4987.88933
950.2581 4991.00224
950.4313 5050.84389
950.6045 5045.51917
950.7776 5038.71991
950.9508 4975.60152
951.1239 4946.13125
951.2971 4855.87726
951.4702 4886.82207
951.6433 4865.40032
951.8164 4841.97156
951.9895 4879.69514
952.1625 4826.40699
952.3356 4836.03245
952.5086 4792.24687
952.6816 4844.98207
952.8546 4798.53414
953.0276 4790.32178
953.2006 4790.64946
953.3735 4766.95446
953.5465 4794.49964
953.7194 4749.17809
953.8923 4716.53347
954.0652 4748.97330
954.2381 4681.34937
954.4109 4628.65513
954.5838 4625.19406
954.7566 4625.58318
954.9294 4567.15463
955.1022 4589.37509
955.2750 4605.20589
955.4478 4592.71328
955.6206 4589.94852
955.7933 4619.86935
955.9660 4585.54539
956.1388 4577.33303
956.3115 4553.14652
956.4841 4511.20412
956.6568 4479.93164
956.8295 4462.15527
957.0021 4446.69311
957.1747 4467.47999
957.3473 4447.34846
957.5199 4412.32819
957.6925 4431.06711
957.8651 4445.97632
958.0376 4471.80120
958.2102 4416.62893
958.3827 4439.68905
958.5552 4520.09231
958.7277 4465.18627
958.9001 4418.86121
959.0726 4357.87270
959.2450 4329.46738
959.4175 4332.98988
959.5899 4284.20727
959.7623 4281.05340
959.9347 4231.98406
960.1070 4195.57118
960.2794 4214.74017
960.4517 4188.25993
960.6241 4206.77357
960.7964 4233.64292
960.9687 4258.25950
961.1409 4232.10694
961.3132 4200.22007
961.4855 4144.61772
961.6577 4135.09466
961.8299 4165.99851
962.0021 4159.83413
962.1743 4112.03453
962.3465 4075.76501
962.5186 4091.14525
962.6908 4088.64673
962.8629 4063.80487
963.0350 4060.81484
963.2071 4058.27535
963.3792 4030.54586
963.5513 3997.22541
963.7233 4041.03146
963.8954 4029.89051
964.0674 4009.63610
964.2394 4011.27447
964.4114 3981.39461
964.5834 3959.87046
964.7553 3994.35825
964.9273 3974.71823
965.0992 3921.61440
965.2711 3967.34554
965.4430 3964.29407
965.6149 3955.48780
965.7868 3912.05039
965.9587 3879.79488
966.1305 3915.20426
966.3023 3915.28618
966.4741 3928.70037
966.6459 3894.00778
966.8177 3900.27457
966.9895 3872.01260
967.1613 3864.41463
967.3330 3861.56796
967.5047 3824.02869
967.6764 3826.52721
967.8481 3793.45252
968.0198 3799.16635
968.1915 3760.39830
968.3631 3764.02320
968.5347 3770.51527
968.7064 3748.43816
968.8780 3730.35460
969.0496 3755.09406
969.2211 3714.93339
969.3927 3737.39961
969.5642 3700.53617
969.7358 3684.23434
969.9073 3656.48437
970.0788 3712.82399
970.2503 3723.71918
970.4217 3710.26402
970.5932 3684.23434
970.7646 3666.10982
970.9360 3676.59542
971.1074 3678.35667
971.2788 3703.48525
971.4502 3701.72400
971.6216 3662.19820
971.7929 3615.79123
971.9643 3596.56080
972.1356 3622.36521
972.3069 3634.61206
972.4782 3602.62279
972.6494 3569.30234
972.8207 3575.36432
972.9919 3570.36728
973.1632 3526.33595
973.3344 3499.77380
973.5056 3486.58488
973.6768 3480.56385
973.8479 3532.35698
974.0191 3547.71675
974.1902 3524.18558
974.3614 3489.57491
974.5325 3514.47821
974.7036 3489.08340
974.8746 3485.82713
975.0457 3459.46977
975.2167 3432.64138
975.3878 3425.16630
975.5588 3416.13475
975.7298 3417.56833
975.9008 3407.88144
976.0718 3392.46023
976.2427 3379.23036
976.4137 3348.71562
976.5846 3352.29957
976.7555 3338.12762
976.9264 3343.28850
977.0973 3341.15862
977.2682 3361.84310
977.4390 3358.70971
977.6098 3372.86117
977.7807 3385.72242
977.9515 3378.63645
978.1223 3380.60250
978.2930 3346.95437
978.4638 3320.10550
978.6346 3291.16770
978.8053 3263.62252
978.9760 3246.95205
979.1467 3234.15225
979.3174 3243.28619
979.4881 3242.26221
979.6587 3258.21588
979.8294 3236.89653
980.0000 3226.00133
980.1706 3213.20153
980.3412 3194.54453
980.5118 3168.39197
980.6824 3160.73257
980.8529 3191.86170
981.0235 3196.98162
981.1940 3196.75634
981.3645 3166.67168
981.5350 3160.52777
981.7055 3139.53609
981.8759 3157.55822
982.0464 3150.04217
982.2168 3130.42263
982.3872 3154.26099
982.5576 3143.87779
982.7280 3139.08554
982.8984 3143.91875
983.0687 3121.10437
983.2391 3125.97854
983.4094 3097.57321
983.5797 3076.90921
983.7500 3080.82083
983.9203 3061.75424
984.0906 3067.32472
984.2608 3045.96440
984.4311 3064.43708
984.6013 3035.41736
984.7715 3076.58153
984.9417 3078.28135
985.1119 3051.82159
985.2820 3006.33621
985.4522 2996.83363
985.6223 3008.99857
985.7924 3001.25724
985.9625 3014.20041
986.1326 3036.01127
986.3027 3011.76332
986.4727 3016.20742
986.6428 2992.10282
986.8128 2977.43937
986.9828 2949.62795
987.1528 2956.63200
987.3228 2965.37683
987.4928 2971.17258
987.6627 2979.69213
987.8327 2950.97961
988.0026 2941.25176
988.1725 2919.58425
988.3424 2904.28592
988.5123 2906.25197
988.6821 2904.63408
988.8520 2917.70012
989.0218 2896.58556
989.1916 2912.19108
989.3614 2885.50605
989.5312 2869.42950
989.7010 2848.82693
989.8707 2850.17859
990.0405 2841.31088
990.2102 2847.98726
990.3799 2825.76680
990.5496 2818.08692
990.7193 2824.90665
990.8890 2826.23783
991.0586 2806.63877
991.2283 2823.63691
991.3979 2801.37549
991.5675 2815.71128
991.7371 2798.34450
991.9067 2785.74949
992.0762 2750.07388
992.2458 2771.27035
992.4153 2776.57459
992.5848 2796.66517
992.7543 2792.85594
992.9238 2776.65651
993.0933 2768.68991
993.2627 2764.47110
993.4322 2747.61631
993.6016 2751.77369
993.7710 2711.98166
993.9404 2732.91190
994.1098 2724.41283
994.2792 2729.79899
994.4485 2704.17890
994.6179 2704.62945
994.7872 2715.89328
994.9565 2715.29937
995.1258 2713.16948
995.2951 2712.12502
995.4643 2709.97465
995.6336 2711.34679
995.8028 2684.72319
995.9720 2666.63963
996.1412 2679.95143
996.3104 2684.47744
996.4796 2661.33539
996.6487 2673.11121
996.8179 2672.53778
996.9870 2677.67818
997.1561 2637.00552
997.3252 2645.66843
997.4943 2626.19225
997.6634 2625.35258
997.8324 2633.66733
998.0014 2627.31863
998.1705 2609.09171
998.3395 2588.98065
998.5085 2557.09378
998.6774 2584.70040
998.8464 2562.91001
999.0153 2575.19782
999.1843 2579.43712
999.3532 2585.84726
999.5221 2564.26167
999.6910 2575.50502
999.8599 2588.38674
1000.0287 2598.25795
1000.1976 2590.78287
1000.3664 2585.04855
1000.5352 2575.85318
1000.7040 2580.48158
1000.8728 2560.86204
1001.0415 2531.04362
1001.2103 2505.38257
1001.3790 2527.95119
1001.5478 2504.21523
1001.7165 2501.24567
1001.8851 2508.80268
1002.0538 2508.53644
1002.2225 2508.10637
1002.3911 2515.86817
1002.5598 2483.71506
1002.7284 2488.34347
1002.8970 2482.48628
1003.0656 2494.22114
1003.2341 2471.93924
1003.4027 2469.66600
1003.5712 2426.78153
1003.7398 2431.10274
1003.9083 2438.43447
1004.0768 2421.31345
1004.2453 2408.26789
1004.4137 2427.06825
1004.5822 2417.01272
1004.7506 2439.66325
1004.9190 2414.57564
1005.0874 2401.61199
1005.2558 2404.43819
1005.4242 2400.60849
1005.5926 2403.63948
1005.7609 2393.11292
1005.9292 2373.16571
1006.0976 2397.47510
1006.2659 2387.27621
1006.4342 2400.05554
1006.6024 2398.27380
1006.7707 2403.47565
1006.9389 2393.25628
1007.1071 2393.74779
1007.2754 2386.47750
1007.4436 2379.82161
1007.6117 2353.71000
1007.7799 2361.14413
1007.9481 2352.60410
1008.1162 2357.82642
1008.2843 2360.09967
1008.4524 2357.33491
1008.6205 2341.89323
1008.7886 2344.88326
1008.9566 2319.75468
1009.1247 2326.90209
1009.2927 2308.94141
1009.4607 2315.33107
1009.6287 2291.47223
1009.7967 2303.37093
1009.9647 2301.81448
1010.1327 2295.62961
1010.3006 2280.90472
1010.4685 2265.13536
1010.6364 2276.15343
1010.8043 2272.61044
1010.9722 2264.74624
1011.1401 2255.38702
1011.3079 2253.19570
1011.4758 2273.75730
1011.6436 2252.04884
1011.8114 2264.66432
1011.9792 2264.66432
1012.1470 2274.67889
1012.3147 2269.06746
1012.4825 2261.08038
1012.6502 2264.17281
1012.8179 2267.40860
1012.9856 2248.30105
1013.1533 2257.35307
1013.3210 2235.29645
1013.4886 2232.16306
1013.6563 2205.19131
1013.8239 2211.62193
1013.9915 2205.90810
1014.1591 2201.48449
1014.3267 2215.63595
1014.4942 2208.69334
1014.6618 2198.18726
1014.8293 2217.13097
1014.9969 2206.07194
1015.1644 2222.80384
1015.3319 2215.41068
1015.4993 2203.16382
1015.6668 2194.29612
1015.8342 2187.35350
1016.0017 2185.24410
1016.1691 2190.85553
1016.3365 2173.03820
1016.5039 2178.56772
1016.6712 2180.10369
1016.8386 2167.40629
1017.0059 2156.38822
1017.1733 2172.03470
1017.3406 2150.83822
1017.5079 2156.73637
1017.6752 2141.27421
1017.8424 2144.34616
1018.0097 2141.37660
1018.1769 2144.16184
1018.3441 2138.22273
1018.5113 2136.99395
1018.6785 2130.56333
1018.8457 2137.40355
1019.0129 2135.49893
1019.1800 2143.79321
1019.3471 2141.70428
1019.5142 2145.00151
1019.6813 2137.52642
1019.8484 2137.95650
1020.0155 2130.78861
1020.1826 2115.61316
1020.3496 2108.32239
1020.5166 2098.79933
1020.6836 2088.72333
1020.8506 2094.90819
1021.0176 2090.79178
1021.1846 2099.47516
1021.3515 2077.41854
1021.5185 2098.79933
1021.6854 2080.51097
1021.8523 2083.46005
1022.0192 2085.30322
1022.1861 2083.23477
1022.3529 2067.01486
1022.5198 2082.37462
1022.6866 2069.53386
1022.8534 2082.35415
1023.0202 2062.20213
1023.1870 2058.94586
1023.3538 2043.74993
1023.5205 2066.01135
1023.6873 2055.36192
1023.8540 2060.11320
1024.0207 2047.17004
1024.1874 2043.87281
1024.3541 2047.66155
1024.5207 2054.27649
1024.6874 2031.25733
1024.8540 2032.75234
1025.0206 2018.17080
1025.1872 2037.05308
1025.3538 2027.98058
1025.5204 2029.41415
1025.6870 2025.60493
1025.8535 2010.69572
1026.0201 2016.96250
1026.1866 2017.61785
1026.3531 2002.95440
1026.5196 2017.69977
1026.6860 1998.55126
1026.8525 2007.39849
1027.0189 1990.54371
1027.1853 1992.75551
1027.3518 1995.56123
1027.5181 1998.20311
1027.6845 1998.34647
1027.8509 1979.01364
1028.0172 1966.72583
1028.1836 1978.37877
1028.3499 1970.55553
1028.5162 1972.19391
1028.6825 1965.55849
1028.8488 1960.13137
1029.0150 1953.70075
1029.1813 1959.10739
1029.3475 1948.45795
1029.5137 1952.28765
1029.6799 1951.69374
1029.8461 1946.90149
1030.0123 1937.74707
1030.1784 1936.57973
1030.3446 1938.32050
1030.5107 1945.73415
1030.6768 1940.67567
1030.8429 1922.61258
1031.0090 1909.13695
1031.1750 1924.55815
1031.3411 1922.75594
1031.5071 1922.30539
1031.6732 1919.52015
1031.8392 1922.61258
1032.0051 1909.01407
1032.1711 1914.50263
1032.3371 1908.01057
1032.5030 1907.45761
1032.6690 1919.13104
1032.8349 1908.87071
1033.0008 1893.59287
1033.1667 1899.57293
1033.3325 1894.37109
1033.4984 1900.51500
1033.6642 1894.71925
1033.8300 1913.76536
1033.9959 1889.18973
1034.1616 1907.27330
1034.3274 1897.75024
1034.4932 1902.76777
1034.6589 1879.62572
1034.8247 1893.30615
1034.9904 1873.60469
1035.1561 1882.16520
1035.3218 1872.35543
1035.4875 1877.96686
1035.6531 1872.62167
1035.8188 1885.44195
1035.9844 1862.15655
1036.1500 1860.17002
1036.3156 1853.51412
1036.4812 1862.11559
1036.6468 1867.11263
1036.8123 1864.79843
1036.9779 1850.56504
1037.1434 1857.99917
1037.3089 1856.07408
1037.4744 1861.37832
1037.6399 1854.51762
1037.8053 1842.84420
1037.9708 1848.90619
1038.1362 1862.07463
1038.3016 1846.53054
1038.4670 1853.90323
1038.6324 1843.19235
1038.7978 1826.58333
1038.9632 1842.10693
1039.1285 1845.09697
1039.2938 1829.28665
1039.4592 1832.93203
1039.6245 1817.49035
1039.7897 1821.91396
1039.9550 1828.13978
1040.1203 1818.12522
1040.2855 1815.23758
1040.4507 1825.45695
1040.6159 1810.77301
1040.7811 1813.12817
1040.9463 1809.27799
1041.1115 1809.62615
1041.2766 1797.62505
1041.4418 1797.09258
1041.6069 1793.44719
1041.7720 1789.31030
1041.9371 1776.28522
1042.1021 1795.26989
1042.2672 1782.57248
1042.4323 1800.02117
1042.5973 1779.41861
1042.7623 1779.39813
1042.9273 1785.58299
1043.0923 1797.72745
1043.2572 1782.73632
1043.4222 1778.92710
1043.5871 1762.58430
1043.7521 1778.14887
1043.9170 1778.47654
1044.0819 1767.11032
1044.2467 1766.80312
1044.4116 1767.11032
1044.5765 1756.58376
1044.7413 1754.67915
1044.9061 1756.31752
1045.0709 1764.91899
1045.2357 1751.21808
1045.4005 1742.26845
1045.5652 1734.36330
1045.7300 1735.53064
1045.8947 1731.65998
1046.0594 1742.82141
1046.2241 1733.31883
1046.3888 1744.15259
1046.5535 1740.67104
1046.7181 1743.31292
1046.8828 1727.74836
1047.0474 1720.68286
1047.2120 1720.15039
1047.3766 1735.24392
1047.5412 1711.71276
1047.7057 1721.07198
1047.8703 1718.45058
1048.0348 1712.71627
1048.1993 1718.47106
1048.3639 1719.18785
1048.5283 1700.16222
1048.6928 1714.51848
1048.8573 1706.77716
1049.0217 1708.72273
1049.1861 1701.86203
1049.3506 1705.17974
1049.5150 1694.75558
1049.6793 1702.78362
1049.8437 1706.94099
1050.0081 1702.96793
1050.1724 1689.24654
1050.3367 1691.88842
1050.5010 1682.22201
1050.6653 1689.26702
1050.8296 1681.38234
1050.9939 1700.30558
1051.1581 1671.59305
1051.3224 1682.40633
1051.4866 1680.35836
1051.6508 1680.03068
1051.8150 1662.68439
1051.9791 1670.13900
1052.1433 1656.00801
1052.3074 1668.48014
1052.4716 1657.97406
1052.6357 1656.88864
1052.7998 1655.08642
1052.9639 1662.82775
1053.1279 1650.31466
1053.2920 1647.97997
1053.4560 1646.01392
1053.6201 1657.38015
1053.7841 1646.95599
1053.9481 1645.09234
1054.1120 1640.64825
1054.2760 1628.07372
1054.4399 1638.86651
1054.6039 1649.12684
1054.7678 1621.84789
1054.9317 1639.29659
1055.0956 1633.41892
1055.2595 1635.40545
1055.4233 1623.22003
1055.5872 1627.99180
1055.7510 1616.40030
1055.9148 1626.86542
1056.0786 1616.99421
1056.2424 1630.36744
1056.4062 1611.62853
1056.5699 1623.22003
1056.7336 1620.49623
1056.8974 1608.80233
1057.0611 1612.30436
1057.2248 1599.46359
1057.3885 1600.89717
1057.5521 1607.36875
1057.7158 1598.35769
1057.8794 1609.88775
1058.0430 1598.93112
1058.2066 1606.52909
1058.3702 1598.80824
1058.5338 1606.52909
1058.6973 1590.59589
1058.8609 1599.25880
1059.0244 1597.94810
1059.1879 1594.32319
1059.3514 1574.90845
1059.5149 1590.80069
1059.6784 1579.92597
1059.8418 1580.43796
1060.0053 1572.16417
1060.1687 1570.17764
1060.3321 1564.83244
1060.4955 1566.40938
1060.6589 1558.25846
1060.8222 1574.60125
1060.9856 1561.12562
1061.1489 1567.90440
1061.3122 1551.15201
1061.4755 1576.54682
1061.6388 1556.37433
1061.8021 1565.81547
1061.9654 1551.33633
1062.1286 1558.70902
1062.2918 1552.97470
1062.4550 1552.99518
1062.6182 1547.89574
1062.7814 1556.76345
1062.9446 1555.92378
1063.1077 1550.74242
1063.2709 1532.43358
1063.4340 1540.87121
1063.5971 1531.96254
1063.7602 1542.28431
1063.9233 1524.26218
1064.0863 1535.25977
1064.2494 1533.55996
1064.4124 1539.08947
1064.5754 1524.13930
1064.7384 1534.87066
1064.9014 1529.19779
1065.0644 1532.29022
1065.2274 1506.89541
1065.3903 1523.95499
1065.5532 1510.43839
1065.7162 1509.25057
1065.8790 1511.52382
1066.0419 1512.03581
1066.2048 1514.65721
1066.3677 1510.82751
1066.5305 1499.58416
1066.6933 1504.15113
1066.8561 1497.96626
1067.0189 1501.20205
1067.1817 1490.51166
1067.3445 1493.01018
1067.5072 1486.10852
1067.6699 1485.45317
1067.8327 1487.41922
1067.9954 1490.85981
1068.1580 1481.25484
1068.3207 1486.10852
1068.4834 1475.04949
1068.6460 1486.64100
1068.8086 1475.27477
1068.9713 1473.90263
1069.1339 1465.07588
1069.2964 1472.89913
1069.4590 1461.92201
1069.6216 1469.37662
1069.7841 1462.96648
1069.9466 1458.25615
1070.1091 1455.79859
1070.2716 1464.40005
1070.4341 1455.34803
1070.5966 1448.28254
1070.7590 1446.99232
1070.9214 1460.32460
1071.0839 1447.91391
1071.2463 1451.35449
1071.4086 1440.52074
1071.5710 1438.84140
1071.7334 1432.41078
1071.8957 1446.29601
1072.0580 1433.96724
1072.2204 1434.66355
1072.3827 1431.38680
1072.5449 1431.50968
1072.7072 1428.41724
1072.8695 1429.97370
1073.0317 1431.07960
1073.1939 1421.86374
1073.3561 1429.07259
1073.5183 1438.14510
1073.6805 1415.86320
1073.8427 1426.22592
1074.0048 1412.09493
1074.1669 1419.65194
1074.3291 1416.92814
1074.4912 1408.90010
1074.6532 1409.49401
1074.8153 1406.68830
1074.9774 1401.30214
1075.1394 1411.74678
1075.3014 1410.64087
1075.4635 1400.50343
1075.6255 1394.44144
1075.7874 1407.46652
1075.9494 1377.64810
1076.1114 1402.53092
1076.2733 1394.93295
1076.4352 1394.60528
1076.5971 1380.55621
1076.7590 1393.45842
1076.9209 1374.65806
1077.0828 1390.34550
1077.2446 1376.33740
1077.4064 1385.24606
1077.5683 1369.41526
1077.7301 1372.91729
1077.8918 1369.25143
1078.0536 1369.94774
1078.2154 1376.48076
1078.3771 1374.33039
1078.5388 1360.87523
1078.7006 1366.54811
1078.8623 1365.03261
1079.0239 1360.28132
1079.1856 1357.51657
1079.3473 1363.29184
1079.5089 1353.64590
1079.6705 1357.61896
1079.8321 1352.37616
1079.9937 1361.91970
1080.1553 1340.55938
1080.3169 1348.71030
1080.4784 1345.02396
1080.6399 1358.11048
1080.8014 1338.85957
1080.9629 1352.04849
1081.1244 1340.74370
1081.2859 1340.00643
1081.4474 1334.74315
1081.6088 1334.72267
1081.7702 1335.70570
1081.9316 1330.56530
1082.0930 1333.39149
1082.2544 1324.25755
1082.4158 1327.43190
1082.5771 1332.40847
1082.7385 1326.42840
1082.8998 1331.97840
1083.0611 1322.70110
1083.2224 1317.80645
1083.3837 1311.51919
1083.5449 1317.78597
1083.7062 1309.12306
1083.8674 1314.65258
1084.0286 1310.20849
1084.1898 1312.44077
1084.3510 1309.04115
1084.5122 1308.67251
1084.6734 1295.17640
1084.8345 1303.04060
1084.9956 1291.81773
1085.1567 1303.04060
1085.3178 1295.38119
1085.4789 1300.13248
1085.6400 1293.90666
1085.8010 1285.87862
1085.9621 1285.22327
1086.1231 1299.55905
1086.2841 1271.19468
1086.4451 1290.91662
1086.6061 1285.96054
1086.7670 1292.88267
1086.9280 1276.27365
1087.0889 1281.41405
1087.2498 1285.24375
1087.4107 1278.87457
1087.5716 1283.83065
1087.7325 1267.42642
1087.8933 1263.57624
1088.0542 1288.58194
1088.2150 1269.29007
1088.3758 1267.42642
1088.5366 1268.81904
1088.6974 1272.21867
1088.8582 1270.45741
1089.0189 1273.44745
1089.1796 1266.66867
1089.3404 1274.61479
1089.5011 1259.05023
1089.6618 1278.99744
1089.8224 1264.33399
1089.9831 1270.06830
1090.1438 1254.52422
1090.3044 1267.89745
1090.4650 1268.92144
1090.6256 1262.30650
1090.7862 1260.27901
1090.9468 1265.11222
1091.1073 1263.00281
1091.2679 1262.08122
1091.4284 1267.95889
1091.5889 1268.38897
1091.7494 1258.00576
1091.9099 1263.90391
1092.0703 1254.29894
1092.2308 1266.32052
1092.3912 1257.53473
1092.5516 1266.87347
1092.7121 1248.31887
1092.8724 1259.23455
1093.0328 1246.04563
1093.1932 1259.48030
1093.3535 1248.54415
1093.5139 1270.17070
1093.6742 1259.64414
1093.8345 1266.25908
1093.9948 1250.83787
1094.1550 1251.98474
1094.3153 1255.13861
1094.4755 1255.48676
1094.6358 1255.85540
1094.7960 1256.08067
1094.9562 1254.95429
1095.1163 1266.17716
1095.2765 1247.80688
1095.4367 1256.30595
1095.5968 1248.56463
1095.7569 1259.95133
1095.9170 1246.76242
1096.0771 1263.67864
1096.2372 1252.98824
1096.3973 1259.09119
1096.5573 1244.42773
1096.7173 1258.64063
1096.8773 1255.40484
1097.0374 1257.86241
1097.1973 1255.17957
1097.3573 1255.32292
1097.5173 1249.24046
1097.6772 1258.27200
1097.8371 1246.78290
1097.9970 1253.58215
1098.1569 1248.93326
1098.3168 1251.75946
1098.4767 1245.28788
1098.6365 1253.54119
1098.7964 1260.87292
1098.9562 1261.52827
1099.1160 1246.80338
1099.2758 1267.16018
1099.4356 1250.91979
1099.5953 1265.52181
1099.7551 1246.57810
1099.9148 1258.96831
1100.0745 1251.12459
1100.2342 1257.35041
1100.3939 1249.52717
1100.5536 1257.43233
1100.7132 1252.35337
1100.8729 1262.28602
1101.0325 1256.38787
1101.1921 1260.56573
1101.3517 1250.22348
1101.5113 1256.40835
1101.6709 1253.76647
1101.8304 1246.57810
1101.9899 1248.48271
1102.1495 1257.30945
1102.3090 1238.24287
1102.4685 1261.95834
1102.6279 1247.56112
1102.7874 1259.02975
1102.9468 1250.69452
1103.1063 1252.37385
1103.2657 1245.94323
1103.4251 1253.82791
1103.5845 1248.89230
1103.7438 1256.06019
1103.9032 1251.12459
1104.0625 1257.69857
1104.2219 1249.19950
1104.3812 1252.98824
1104.5405 1248.52367
1104.6997 1264.27255
1104.8590 1241.19194
1105.0183 1259.05023
1105.1775 1246.16850
1105.3367 1261.61019
1105.4959 1246.59858
1105.6551 1258.98879
1105.8143 1245.04212
1105.9735 1254.15558
1106.1326 1245.73843
1106.2917 1263.06425
1106.4508 1249.09710
1106.6099 1252.41481
1106.7690 1239.75836
1106.9281 1252.64009
1107.0872 1245.39028
1107.2462 1260.62716
1107.4052 1255.11813
1107.5642 1249.03566
1107.7232 1251.28843
1107.8822 1261.01628
1108.0412 1249.62957
1108.2001 1247.54064
1108.3591 1247.25393
1108.5180 1260.72956
1108.6769 1249.93677
1108.8358 1245.10356
1108.9947 1245.22644
1109.1535 1263.41240
1109.3124 1250.34636
1109.4712 1256.03971
1109.6300 1249.26094
1109.7888 1259.86942
1109.9476 1246.31186
1110.1064 1260.15613
1110.2651 1246.98769
1110.4239 1256.28547
1110.5826 1243.07607
1110.7413 1257.00226
1110.9000 1252.10761
1111.0587 1259.76702
1111.2173 1248.44175
1111.3760 1252.64009
1111.5346 1252.86536
1111.6932 1262.67513
1111.8518 1246.78290
1112.0104 1256.69506
1112.1690 1252.21001
1112.3276 1259.84894
1112.4861 1253.29544
1112.6446 1261.42587
1112.8032 1246.35282
1112.9617 1253.66407
1113.1201 1247.00817
1113.2786 1254.83141
1113.4371 1241.68345
1113.5955 1255.56868
1113.7539 1246.37330
1113.9123 1258.04672
1114.0707 1247.47920
1114.2291 1259.13215
1114.3875 1255.09765
1114.5458 1248.42127
1114.7042 1248.44175
1114.8625 1248.97422
1115.0208 1246.53714
1115.1791 1252.33289
1115.3374 1245.45172
1115.4956 1253.07016
1115.6539 1246.00467
1115.8121 1251.94378
1115.9703 1243.83382
1116.1285 1256.44931
1116.2867 1244.46869
1116.4449 1250.30540
1116.6030 1254.01223
1116.7612 1255.15909
1116.9193 1239.36925
1117.0774 1254.56518
1117.2355 1250.30540
1117.3936 1253.23400
1117.5516 1247.31537
1117.7097 1251.86186
1117.8677 1246.33234
1118.0257 1258.23104
1118.1837 1246.22994
1118.3417 1267.77457
1118.4997 1256.77698
1118.6577 1246.55762
1118.8156 1250.30540
1118.9735 1249.32238
1119.1315 1243.36279
1119.2894 1257.08418
1119.4472 1243.07607
1119.6051 1247.95024
1119.7630 1243.40375
1119.9208 1247.76592
1120.0786 1245.53363
1120.2364 1258.37440
1120.3942 1249.50669
1120.5520 1251.59562
1120.7098 1247.11057
1120.8675 1255.07717
1121.0253 1251.14507
1121.1830 1256.67458
1121.3407 1253.54119
1121.4984 1257.67809
1121.6560 1255.24101
