# Averages = 100
# wavelength [µm]	intensity
446.8250 14.33578
447.0374 36746.70328
447.2498 1230.99306
447.4621 1228.71981
447.6745 1234.10597
447.8868 1239.63548
448.0992 1238.44766
448.3115 1239.32829
448.5238 1244.77589
448.7360 1241.60153
448.9483 1242.93271
449.1606 1237.17792
449.3728 1263.04377
449.5850 1235.84674
449.7972 1245.39028
450.0094 1239.53309
450.2216 1257.61665
450.4337 1250.26444
450.6459 1759.10276
450.8580 2128.67920
451.0701 2162.90076
451.2822 2183.23709
451.4943 2171.97326
451.7064 2154.23785
451.9184 2145.71830
452.1305 2254.36304
452.3425 2350.57661
452.5545 2256.24717
452.7665 2267.30620
452.9785 2361.38989
453.1905 2392.23230
453.4024 2361.63564
453.6143 2467.26987
453.8263 2454.38815
454.0382 2654.37230
454.2501 2454.61343
454.4619 2426.78153
454.6738 2565.34710
454.8856 2694.28721
455.0975 2488.77354
455.3093 2486.64366
455.5211 2559.73566
455.7329 2529.54860
455.9446 2581.42365
456.1564 2577.69635
456.3681 2690.96950
456.5798 2792.65115
456.7916 2717.34734
457.0033 2695.61839
457.2149 2674.27855
457.4266 2713.18996
457.6382 2749.29565
457.8499 2727.91485
458.0615 2844.15756
458.2731 2734.14068
458.4847 2863.55183
458.6963 2964.33237
458.9078 2990.89452
459.1194 3158.21357
459.3309 3179.69676
459.5424 3014.05705
459.7539 2912.33444
459.9654 2930.45896
460.1769 2975.84195
460.3883 2956.26337
460.5998 2817.75924
460.8112 2806.31110
461.0226 2874.87709
461.2340 2965.86834
461.4454 2927.01838
461.6567 2897.73242
461.8681 2909.59016
462.0794 2868.75367
462.2907 3000.47902
462.5020 3259.38323
462.7133 3357.27613
462.9246 3117.27467
463.1359 2967.58864
463.3471 2832.38174
463.5583 2907.11212
463.7696 3326.26988
463.9808 3142.15749
464.1919 3080.41124
464.4031 3065.82970
464.6143 3099.68262
464.8254 3004.98455
465.0365 2969.55469
465.2476 3240.70575
465.4587 3419.73918
465.6698 2984.91445
465.8809 3050.83857
466.0919 3036.27751
466.3030 3094.70606
466.5140 3127.92411
466.7250 3058.51845
466.9360 3192.06649
467.1469 3116.33261
467.3579 2915.07872
467.5688 2903.63057
467.7798 3152.58165
467.9907 3260.32529
468.2016 3147.52317
468.4125 3118.91305
468.6233 2961.34233
468.8342 2994.76518
469.0450 3171.07481
469.2559 3277.97878
469.4667 3223.40041
469.6775 2974.16262
469.8882 3133.94514
470.0990 3098.92487
470.3098 3394.95876
470.5205 3213.91832
470.7312 3300.05588
470.9419 3508.96918
471.1526 3408.00432
471.3633 3114.48944
471.5739 3143.55011
471.7846 3135.66543
471.9952 3060.19778
472.2058 3186.53698
472.4164 3142.25989
472.6270 3138.38923
472.8376 3271.56864
473.0481 3473.31404
473.2587 3532.70513
473.4692 3448.98417
473.6797 3338.23002
473.8902 3075.68043
474.1007 3058.98948
474.3111 3097.04074
474.5216 3012.31628
474.7320 3142.64901
474.9424 3303.49647
475.1528 3368.86763
475.3632 3226.26757
475.5736 3173.51190
475.7840 3193.56151
475.9943 3237.51092
476.2046 3245.57992
476.4149 3337.47227
476.6252 3342.61268
476.8355 3471.06128
477.0458 3543.19073
477.2561 3544.76767
477.4663 3361.59735
477.6765 3384.57555
477.8867 3406.52978
478.0969 3392.50119
478.3071 3371.03848
478.5173 3483.30813
478.7274 3456.88933
478.9375 3512.00017
479.1477 3473.92843
479.3578 3628.03808
479.5679 3565.06304
479.7779 3601.96744
479.9880 3595.90545
480.1980 3641.08364
480.4081 3655.35798
480.6181 3521.58466
480.8281 3639.58862
481.0381 3570.03960
481.2480 3569.13850
481.4580 3666.13030
481.6679 3625.86723
481.8778 3565.32928
482.0877 3583.65860
482.2976 3502.14944
482.5075 3593.91892
482.7174 3667.31812
482.9272 3730.62083
483.1371 3603.15526
483.3469 3651.58972
483.5567 3775.04128
483.7665 3646.12164
483.9762 3710.48930
484.1860 3857.61538
484.3957 3867.19987
484.6055 3700.00370
484.8152 3786.22319
485.0249 3905.29209
485.2346 3894.64265
485.4442 3893.08620
485.6539 3917.84614
485.8635 3913.23821
486.0732 3795.84864
486.2828 3804.55251
486.4924 3812.94918
486.7019 3932.53007
486.9115 3886.96277
487.1210 3901.56479
487.3306 4022.92741
487.5401 3997.43020
487.7496 4049.87868
487.9591 4093.35706
488.1686 4041.76873
488.3780 3996.73389
488.5875 4101.26222
488.7969 4194.60863
489.0063 4174.37470
489.2157 4220.98647
489.4251 4150.82306
489.6345 4120.90224
489.8438 4239.99162
490.0531 4045.94658
490.2625 4132.94430
490.4718 4218.79515
490.6811 4283.32664
490.8903 4305.89526
491.0996 4336.73767
491.3089 4353.08046
491.5181 4403.68576
491.7273 4403.60385
491.9365 4388.98135
492.1457 4484.10950
492.3549 4497.38033
492.5640 4403.84960
492.7732 4475.24179
492.9823 4524.39304
493.1914 4644.75217
493.4005 4622.75698
493.6096 4575.61274
493.8187 4555.70648
494.0277 4652.00197
494.2368 4653.76323
494.4458 4694.94788
494.6548 4750.07920
494.8638 4809.36789
495.0728 4794.37676
495.2817 4783.66589
495.4907 4832.61234
495.6996 4845.12543
495.9085 4868.79995
496.1174 4930.54620
496.3263 4932.22554
496.5352 4953.40154
496.7440 5051.66308
496.9529 5085.57744
497.1617 5029.62693
497.3705 5061.02229
497.5793 5176.26150
497.7881 5086.76526
497.9969 5171.48973
498.2056 5239.97380
498.4144 5265.59389
498.6231 5325.84513
498.8318 5330.16635
499.0405 5362.77001
499.2492 5336.49457
499.4578 5390.31519
499.6665 5391.01150
499.8751 5530.90824
500.0837 5519.43962
500.2923 5548.52078
500.5009 5570.59788
500.7095 5696.30220
500.9180 5647.10999
501.1266 5718.93225
501.3351 5723.74498
501.5436 5815.04343
501.7521 5791.63515
501.9606 5883.40463
502.1691 5941.66934
502.3775 5882.58544
502.5860 5954.71490
502.7944 5999.54493
503.0028 6073.90668
503.2112 6080.41922
503.4196 6120.51845
503.6279 6179.70474
503.8363 6139.56456
504.0446 6298.63029
504.2529 6242.63882
504.4612 6326.09355
504.6695 6410.03979
504.8778 6425.64531
505.0860 6454.23495
505.2943 6454.31687
505.5025 6548.11384
505.7107 6562.34722
505.9189 6623.37669
506.1271 6683.25930
506.3353 6684.73384
506.5434 6676.07093
506.7516 6793.74721
506.9597 6850.82410
507.1678 6895.38790
507.3759 6875.50213
507.5840 6927.11094
507.7920 6998.62601
508.0001 7034.71122
508.2081 7148.27108
508.4161 7112.34971
508.6241 7302.03258
508.8321 7271.68168
509.0401 7219.99095
509.2480 7380.44930
509.4560 7365.82680
509.6639 7471.56343
509.8718 7463.71971
510.0797 7618.73047
510.2876 7635.05278
510.4955 7703.25014
510.7033 7762.94843
510.9112 7803.82588
511.1190 7905.63041
511.3268 7873.41586
511.5346 7943.12872
511.7424 7967.54050
511.9501 8103.03412
512.1579 8136.47745
512.3656 8159.96765
512.5733 8137.09184
512.7810 8300.49926
512.9887 8373.91894
513.1964 8412.13404
513.4040 8472.67200
513.6117 8528.09003
513.8193 8614.26855
514.0269 8636.18182
514.2345 8759.22378
514.4421 8699.75077
514.6497 8714.61902
514.8572 8895.04507
515.0647 8949.05001
515.2723 8995.49794
515.4798 9086.05912
515.6873 9159.11016
515.8947 9220.59018
516.1022 9192.00054
516.3097 9277.56467
516.5171 9401.22103
516.7245 9463.11064
516.9319 9559.18086
517.1393 9586.27548
517.3467 9603.60130
517.5540 9606.63229
517.7614 9848.33356
517.9687 9873.23686
518.1760 9902.13370
518.3833 10054.29778
518.5906 10077.33743
518.7978 10257.06717
519.0051 10207.32201
519.2123 10385.04473
519.4196 10187.80486
519.6268 10386.23256
519.8340 10442.94081
520.0411 10498.05165
520.2483 10753.51527
520.4554 10711.24520
520.6626 10996.42485
520.8697 10913.01108
521.0768 11145.82417
521.2839 11088.03049
521.4909 11135.91200
521.6980 11281.85025
521.9050 11510.52644
522.1121 11392.54296
522.3191 11644.44312
522.5261 11643.58297
522.7331 11697.30119
522.9400 11886.90214
523.1470 11896.52759
523.3539 12017.66494
523.5608 12025.63154
523.7677 12034.56068
523.9746 12188.67033
524.1815 12480.97691
524.3884 12380.44213
524.5952 12387.44618
524.8020 12693.94518
525.0089 12600.70117
525.2157 12729.21120
525.4225 12832.28547
525.6292 12853.85058
525.8360 12959.54625
526.0427 13073.12660
526.2494 13241.26483
526.4562 13183.02060
526.6629 13333.15719
526.8695 13351.03596
527.0762 13628.80196
527.2829 13694.11168
527.4895 13786.10644
527.6961 13915.66094
527.9027 14044.88777
528.1093 14101.94418
528.3159 14144.41905
528.5224 14094.12094
528.7290 14527.20489
528.9355 14318.41447
529.1420 14762.98753
529.3485 14640.86715
529.5550 14811.85207
529.7615 14802.00134
529.9680 14973.43680
530.1744 14982.65266
530.3808 15227.52828
530.5872 15155.31690
530.7936 15320.40367
531.0000 15394.41726
531.2064 15598.82502
531.4127 15675.89008
531.6191 15794.32411
531.8254 15880.78935
532.0317 16097.66925
532.2380 16066.33532
532.4443 16159.98893
532.6505 16002.19294
532.8568 16281.00341
533.0630 16619.06161
533.2692 16525.05984
533.4754 16669.50308
533.6816 16908.09144
533.8878 16825.08727
534.0939 17165.91023
534.3001 17185.07921
534.5062 17285.24536
534.7123 17208.69229
534.9184 17360.30342
535.1245 17482.01420
535.3306 17488.36290
535.5366 17864.30853
535.7426 17891.03452
535.9487 17912.62011
536.1547 17931.91198
536.3607 18261.98310
536.5666 18142.07453
536.7726 18280.25098
536.9785 18502.98806
537.1845 18680.38312
537.3904 18561.66237
537.5963 18670.14327
537.8022 18851.06083
538.0080 19035.21418
538.2139 19071.11507
538.4197 19287.23722
538.6256 19189.95870
538.8314 19272.32800
539.0372 19451.89390
539.2430 19811.68105
539.4487 19614.85078
539.6545 20006.50432
539.8602 19883.70811
540.0659 20118.20054
540.2716 20540.36881
540.4773 20577.74424
540.6830 20681.88345
540.8887 20797.96232
541.0943 20558.32950
541.2999 20713.97513
541.5056 20770.92914
541.7112 21013.63391
541.9167 20900.85227
542.1223 20957.29429
542.3279 21397.40278
542.5334 21459.88630
542.7389 21685.06047
542.9444 21753.05303
543.1499 21852.66623
543.3554 21756.55506
543.5609 22167.11135
543.7663 22182.83975
543.9718 22061.00609
544.1772 22269.14115
544.3826 22259.45426
544.5880 22915.27530
544.7934 22726.28874
544.9987 22779.14681
545.2041 23200.82358
545.4094 23137.95094
545.6147 23188.86344
545.8200 23505.64325
546.0253 23479.16301
546.2306 23762.35613
546.4358 23597.88376
546.6411 23933.46392
546.8463 23738.55873
547.0515 24033.54815
547.2567 24218.11110
547.4619 24263.10497
547.6670 24378.97904
547.8722 24484.81807
548.0773 24829.36833
548.2824 24897.27897
548.4876 24980.93850
548.6926 25096.52585
548.8977 25202.71303
549.1028 25309.04357
549.3078 25533.27567
549.5129 25478.36962
549.7179 25638.70510
549.9229 25842.47799
550.1279 25728.97956
550.3328 26100.82925
550.5378 25790.99205
550.7427 26123.29546
550.9476 26335.52647
551.1526 25754.86589
551.3575 26395.38859
551.5623 26476.48815
551.7672 26404.93213
551.9720 26489.36988
552.1769 26668.99722
552.3817 26924.48132
552.5865 26758.18626
552.7913 26975.16855
552.9961 26826.01498
553.2008 27072.48802
553.4056 27387.83425
553.6103 27255.55595
553.8150 27536.10719
554.0197 27637.52260
554.2244 27517.59355
554.4291 27576.53409
554.6337 28011.03114
554.8384 27789.07229
555.0430 28009.22893
555.2476 27741.82565
555.4522 27742.00996
555.6568 28160.14374
555.8613 28306.57351
556.0659 28432.83078
556.2704 28158.99688
556.4750 28530.41649
556.6795 28738.63348
556.8839 28447.22800
557.0884 28951.02832
557.2929 28783.19728
557.4973 28630.60313
557.7018 28782.80816
557.9062 28962.80414
558.1106 29028.52345
558.3150 28836.23967
558.5193 29257.58876
558.7237 29326.35955
558.9280 29116.91378
559.1323 29317.69664
559.3367 29111.11803
559.5410 29420.62755
559.7452 29130.18462
559.9495 29511.76216
560.1537 29485.67104
560.3580 29393.43052
560.5622 29587.20933
560.7664 29841.17793
560.9706 29896.78028
561.1748 30010.83166
561.3789 29997.72466
561.5831 30001.65676
561.7872 29940.07434
561.9913 30218.88481
562.1954 30118.28858
562.3995 30291.34194
562.6036 30262.19935
562.8076 30062.66575
563.0117 30353.27252
563.2157 30234.10122
563.4197 30444.01801
563.6237 30682.93405
563.8277 30374.69427
564.0316 30227.52724
564.2356 30625.73428
564.4395 30600.97434
564.6434 30807.34815
564.8473 31021.15609
565.0512 31011.16200
565.2551 30951.09508
565.4590 31006.79983
565.6628 31207.68508
565.8666 31407.89451
566.0705 31185.40318
566.2743 31206.55870
566.4780 31288.76416
566.6818 31145.03772
566.8856 31717.85458
567.0893 31319.34034
567.2930 31517.76803
567.4967 31217.31053
567.7004 31406.15373
567.9041 31530.97743
568.1078 31546.39863
568.3114 31762.27502
568.5151 31742.32780
568.7187 31446.49872
568.9223 31652.27862
569.1259 31846.75373
569.3295 32111.57657
569.5330 32103.38469
569.7366 32102.93414
569.9401 32171.80733
570.1436 32276.27422
570.3471 32392.23021
570.5506 32287.43565
570.7541 32234.57757
570.9575 32184.46378
571.1609 31868.46220
571.3644 32538.47565
571.5678 32407.83573
571.7712 32859.08516
571.9746 32708.08843
572.1779 32522.54246
572.3813 32328.12878
572.5846 32607.45124
572.7879 32449.24566
572.9912 33145.71887
573.1945 32981.18506
573.3978 32569.52286
573.6010 32928.20411
573.8043 33460.43023
574.0075 32705.77422
574.2107 32800.88189
574.4139 32774.89317
574.6171 32896.50155
574.8203 32765.45203
575.0234 33139.67736
575.2266 32608.98722
575.4297 32723.24340
575.6328 32967.44319
575.8359 33296.69512
576.0390 32674.48126
576.2420 32772.12841
576.4451 32510.91000
576.6481 32857.46727
576.8512 33272.59053
577.0542 32605.87431
577.2571 33048.80899
577.4601 33117.62074
577.6631 33023.10698
577.8660 32828.48851
578.0689 32707.96555
578.2719 32874.52685
578.4748 32723.59155
578.6776 32710.36167
578.8805 32854.12908
579.0834 32289.77033
579.2862 32844.29883
579.4890 33218.66752
579.6918 33013.21529
579.8946 32680.42037
580.0974 33080.20435
580.3002 32730.96424
580.5029 32693.30209
580.7057 33023.61897
580.9084 32551.82841
581.1111 33182.54135
581.3138 32927.87643
581.5164 32674.93181
581.7191 32478.36777
581.9217 32657.42168
582.1244 32698.48345
582.3270 32670.07813
582.5296 32608.76194
582.7322 32869.01781
582.9347 32705.71278
583.1373 32483.40578
583.3398 32736.75999
583.5424 32437.63367
583.7449 32403.06396
583.9474 32248.44232
584.1498 32164.37320
584.3523 32653.36670
584.5548 32243.19952
584.7572 32482.11555
584.9596 32693.44545
585.1620 33298.57926
585.3644 32407.67189
585.5668 32468.29177
585.7691 32737.62014
585.9715 32564.07526
586.1738 32853.67853
586.3761 32833.44459
586.5784 32997.05682
586.7807 32968.67197
586.9830 32982.29096
587.1852 32948.41756
587.3875 32575.15478
587.5897 33179.91995
587.7919 32898.07849
587.9941 32610.46176
588.1963 32713.24931
588.3984 33058.02485
588.6006 32477.77386
588.8027 33132.91906
589.0048 32796.78595
589.2069 32872.11024
589.4090 32871.86449
589.6111 33155.05761
589.8131 33036.02966
590.0152 33243.65273
590.2172 33188.93101
590.4192 33472.47228
590.6212 33115.38845
590.8232 32947.88509
591.0252 33354.98032
591.2271 33499.58739
591.4291 33387.93213
591.6310 33271.68943
591.8329 33241.29757
592.0348 33556.27516
592.2367 33610.13674
592.4385 33943.21838
592.6404 34057.10592
592.8422 34155.10123
593.0440 34232.63732
593.2458 34522.89593
593.4476 34680.17993
593.6494 34713.82806
593.8512 34872.54564
594.0529 35144.29061
594.2546 35046.90970
594.4563 34989.25938
594.6580 34758.43282
594.8597 34697.66959
595.0614 34734.49207
595.2630 35082.66723
595.4647 35043.55103
595.6663 34734.86070
595.8679 35066.52924
596.0695 35560.08971
596.2711 35261.96690
596.4727 35391.43948
596.6742 35731.56613
596.8757 35907.60952
597.0773 35759.50042
597.2788 35396.84612
597.4802 35752.96740
597.6817 36222.62808
597.8832 36023.13544
598.0846 36351.95730
598.2860 36208.06702
598.4875 35895.42411
598.6889 36470.24798
598.8902 36583.97168
599.0916 36664.14966
599.2930 36277.22692
599.4943 36792.78258
599.6956 36780.57668
599.8969 36586.94124
600.0982 36220.86682
600.2995 36322.34368
600.5008 37158.24260
600.7020 36521.52912
600.9032 37085.10964
601.1045 36894.85334
601.3057 36582.14899
601.5068 37313.76535
601.7080 37287.30559
601.9092 36989.38758
602.1103 37577.13413
602.3115 37411.14626
602.5126 37550.22382
602.7137 37409.93796
602.9147 37456.50877
603.1158 37678.20139
603.3169 37996.76293
603.5179 37812.40478
603.7189 37702.75653
603.9199 37857.17338
604.1209 37834.80956
604.3219 37756.43379
604.5229 37853.85567
604.7238 38118.00268
604.9247 38098.52649
605.1257 38281.84018
605.3266 38621.68011
605.5275 38143.70468
605.7283 38283.72431
605.9292 38534.58000
606.1300 37880.95029
606.3309 38100.22631
606.5317 38532.63443
606.7325 38681.95183
606.9332 38589.75228
607.1340 38829.58990
607.3348 38740.15510
607.5355 38204.97991
607.7362 39240.06428
607.9369 38469.94611
608.1376 38775.58496
608.3383 38528.41561
608.5390 39421.57575
608.7396 38973.97170
608.9402 39610.37798
609.1409 39595.03870
609.3415 39288.25298
609.5421 39172.13315
609.7426 39519.59153
609.9432 38953.98352
610.1437 38829.87661
610.3443 39731.00334
610.5448 39434.72370
610.7453 39840.54919
610.9457 39580.86675
611.1462 39761.08800
611.3467 39585.33133
611.5471 39925.37606
611.7475 39387.78426
611.9479 40163.22715
612.1483 39654.55267
612.3487 40272.09717
612.5491 40083.68404
612.7494 40755.15156
612.9497 40027.52874
613.1501 40402.22510
613.3504 40236.03244
613.5506 40999.39231
613.7509 40607.28821
613.9512 40455.90236
614.1514 40735.65489
614.3516 41149.93849
614.5519 40877.53817
614.7521 41085.77563
614.9522 40701.47430
615.1524 40707.27005
615.3526 41210.68125
615.5527 41774.26177
615.7528 41300.68947
615.9529 41332.35107
616.1530 41773.03298
616.3531 41788.08555
616.5532 41724.96716
616.7532 41288.36070
616.9532 41693.63324
617.1533 41420.24989
617.3533 41876.55780
617.5532 41431.32940
617.7532 41719.04853
617.9532 40874.11806
618.1531 41930.64466
618.3530 41440.07422
618.5530 41650.40062
618.7528 41804.61266
618.9527 41800.16857
619.1526 41345.35567
619.3524 41466.20631
619.5523 41829.94604
619.7521 41922.12511
619.9519 41923.35389
620.1517 41975.78189
620.3515 42312.11980
620.5512 42564.30667
620.7510 42329.54801
620.9507 42019.60842
621.1504 42097.75891
621.3501 42208.45162
621.5498 42460.53609
621.7495 42560.31313
621.9492 42171.95682
622.1488 41910.98416
622.3484 41893.78122
622.5480 41835.63939
622.7476 42642.43668
622.9472 41854.86982
623.1468 42082.60394
623.3463 43272.51474
623.5459 42934.70230
623.7454 42597.13561
623.9449 42579.87123
624.1444 42562.66830
624.3439 43006.27881
624.5433 42741.78364
624.7428 42526.52165
624.9422 42646.26638
625.1416 42765.49912
625.3410 42805.72123
625.5404 42651.57062
625.7398 42623.24721
625.9391 42915.00084
626.1385 42537.78548
626.3378 42662.89589
626.5371 43329.36636
626.7364 42649.89128
626.9357 43046.56235
627.1350 43064.31824
627.3342 42712.78440
627.5335 42599.51125
627.7327 42780.44929
627.9319 42758.35171
628.1311 43800.58349
628.3303 43053.27969
628.5294 43297.06989
628.7286 43360.80268
628.9277 43651.55280
629.1268 43328.38333
629.3259 43951.82598
629.5250 43915.49501
629.7241 43918.32121
629.9231 43097.49533
630.1222 43984.98259
630.3212 43804.92518
630.5202 43411.36702
630.7192 43983.81525
630.9182 43292.56436
631.1171 43576.06467
631.3161 43313.26932
631.5150 43317.26286
631.7140 43630.62256
631.9129 43757.53518
632.1118 44170.73336
632.3106 44056.78438
632.5095 43832.53180
632.7083 43719.91400
632.9072 43858.43860
633.1060 43999.91228
633.3048 44026.78163
633.5036 43521.60918
633.7023 43750.32633
633.9011 44232.97113
634.0998 44067.22902
634.2986 44275.11833
634.4973 43940.56215
634.6960 44145.56382
634.8947 43936.77341
635.0933 44306.06313
635.2920 43850.77920
635.4906 43445.77290
635.6892 44285.03049
635.8878 44300.67697
636.0864 44243.78440
636.2850 43993.64550
636.4836 44027.17075
636.6821 44024.20119
636.8806 44141.83652
637.0792 44122.91329
637.2777 44116.42123
637.4761 44147.65275
637.6746 43845.74120
637.8731 44265.26760
638.0715 43743.38372
638.2699 44536.72585
638.4683 44168.64443
638.6667 43407.74212
638.8651 44349.41863
639.0635 44512.51886
639.2618 44565.02878
639.4602 44431.00971
639.6585 44256.35893
639.8568 44496.52423
640.0551 44572.25811
640.2534 44451.71467
640.4516 44302.68398
640.6499 44437.66560
640.8481 45201.88562
641.0463 44930.73456
641.2445 45281.83832
641.4427 44998.50185
641.6409 44746.49929
641.8390 45023.28227
642.0372 45322.18331
642.2353 45219.78487
642.4334 44602.77285
642.6315 44946.95447
642.8296 44903.35322
643.0277 44660.13645
643.2257 45351.98125
643.4237 45389.41812
643.6218 45301.27355
643.8198 44979.88581
644.0178 45106.04069
644.2157 44996.51532
644.4137 44942.05983
644.6116 45745.43701
644.8096 45992.40156
645.0075 44778.65240
645.2054 45514.36470
645.4033 45369.57330
645.6011 45208.66440
645.7990 45267.25679
645.9968 45481.96583
646.1947 45411.16755
646.3925 45566.03495
646.5903 45386.28473
646.7881 45611.88897
646.9858 45311.51339
647.1836 45176.16314
647.3813 44998.68616
647.5790 45562.73772
647.7767 46068.38120
647.9744 45292.85640
648.1721 45298.18111
648.3698 45890.06456
648.5674 45057.81102
648.7650 45523.00712
648.9627 45083.47207
649.1603 46070.73637
649.3578 45723.07319
649.5554 45825.88122
649.7530 46255.99562
649.9505 45147.20486
650.1480 45817.81223
650.3455 46153.72006
650.5430 45414.89485
650.7405 45547.68515
650.9380 45405.92475
651.1354 45797.47590
651.3329 45396.44265
651.5303 45861.06532
651.7277 45925.45346
651.9251 45967.82594
652.1225 45848.26552
652.3198 45670.97287
652.5172 45864.09632
652.7145 46207.49972
652.9118 45925.78114
653.1091 45930.61434
653.3064 46320.64999
653.5037 46073.62400
653.7009 45648.46569
653.8982 46079.41975
654.0954 46556.51455
654.2926 46666.44952
654.4898 46516.02621
654.6870 46464.04876
654.8841 47038.09440
655.0813 46499.58102
655.2784 46509.84135
655.4755 47008.78797
655.6726 47202.48486
655.8697 46517.76698
656.0668 46891.21409
656.2639 46550.65736
656.4609 46554.97858
656.6579 46720.22917
656.8550 46847.87907
657.0520 46736.55149
657.2490 46169.30510
657.4459 46795.04147
657.6429 47019.58077
657.8398 46798.17487
658.0367 47184.03266
658.2337 47075.08072
658.4305 47362.61553
658.6274 47401.19926
658.8243 47226.99904
659.0211 47537.57350
659.2180 47329.62276
659.4148 47526.69879
659.6116 47778.61942
659.8084 47686.87042
660.0052 48062.87749
660.2019 47767.00744
660.3987 47488.01266
660.5954 47599.29928
660.7921 47567.51481
660.9888 47241.29386
661.1855 47588.46553
661.3822 47822.17972
661.5788 47205.22913
661.7755 47492.49771
661.9721 47133.57071
662.1687 47620.00425
662.3653 47535.89417
662.5619 47745.31945
662.7584 47091.05488
662.9550 47383.27954
663.1515 47779.29525
663.3480 47396.93949
663.5445 47994.37293
663.7410 47308.89731
663.9375 47470.70732
664.1340 47510.94991
664.3304 47820.60278
664.5268 47487.66450
664.7233 47951.97998
664.9197 47835.20480
665.1160 47898.46656
665.3124 47790.31333
665.5088 47836.43358
665.7051 47966.76631
665.9014 47867.70607
666.0977 47619.98377
666.2940 47641.42600
666.4903 47896.02947
666.6866 47992.07921
666.8828 47645.44002
667.0791 47694.59127
667.2753 48026.03453
667.4715 47859.71899
667.6677 48419.61316
667.8639 48615.54233
668.0600 47796.68251
668.2562 48116.10420
668.4523 48024.78527
668.6484 48090.17691
668.8445 47549.06261
669.0406 48700.53304
669.2367 48592.60508
669.4327 48728.91788
669.6287 48483.65315
669.8248 48313.44646
670.0208 48588.38627
670.2168 48362.47484
670.4128 48505.85313
670.6087 48495.94096
670.8047 48452.72882
671.0006 49204.18999
671.1965 48010.81812
671.3924 48704.15794
671.5883 48166.70950
671.7842 48325.30420
671.9801 47728.79235
672.1759 48138.14034
672.3717 47898.89663
672.5675 48660.67957
672.7633 48550.00733
672.9591 48815.52648
673.1549 49178.48798
673.3506 48536.75698
673.5464 48127.90050
673.7421 48763.11896
673.9378 48570.73278
674.1335 48344.96470
674.3292 48684.37456
674.5249 48171.46079
674.7205 47386.94540
674.9161 47831.45702
675.1118 47809.78951
675.3074 47781.40466
675.5030 47840.48856
675.6985 48324.07542
675.8941 48172.62813
676.0896 48234.90686
676.2852 48389.46706
676.4807 48176.88791
676.6762 48413.59214
676.8717 48670.91941
677.0671 48460.67494
677.2626 49092.49378
677.4580 48541.67210
677.6534 48608.16965
677.8489 48285.63505
678.0442 48361.04126
678.2396 47609.37529
678.4350 47923.77945
678.6303 48112.37689
678.8257 47889.94701
679.0210 48235.74653
679.2163 47848.51660
679.4116 48091.34425
679.6069 47839.05498
679.8021 47423.27637
679.9974 47458.52191
680.1926 47835.77823
680.3878 47727.09253
680.5830 47669.76989
680.7782 47721.52206
680.9734 47519.98145
681.1685 47504.58073
681.3636 47516.62278
681.5588 47558.66758
681.7539 47443.77653
681.9490 47490.81838
682.1441 47484.24440
682.3391 47037.70529
682.5342 47734.01467
682.7292 47737.27094
682.9242 47954.35562
683.1192 47728.34179
683.3142 48259.97400
683.5092 48149.83424
683.7041 48315.80163
683.8991 48106.31490
684.0940 47986.81593
684.2889 47446.21362
684.4838 47914.62503
684.6787 47467.36913
684.8736 46697.35336
685.0684 47569.13270
685.2633 47238.85678
685.4581 47358.00760
685.6529 47698.87152
685.8477 47980.65154
686.0425 47947.22869
686.2372 47593.85168
686.4320 47441.62617
686.6267 47464.25622
686.8214 47254.03223
687.0161 47128.14359
687.2108 47283.72778
687.4055 47112.12848
687.6002 47427.41326
687.7948 47358.97015
687.9894 47693.89496
688.1841 47263.49385
688.3787 47386.88396
688.5732 47033.32264
688.7678 47265.27558
688.9624 46951.03525
689.1569 46941.65556
689.3514 46748.88026
689.5459 46438.42867
689.7404 46633.10858
689.9349 46646.33846
690.1294 46766.39039
690.3238 46802.12745
690.5182 46933.09505
690.7127 47051.40620
690.9071 46865.59400
691.1015 46533.82306
691.2958 46778.33005
691.4902 47052.81930
691.6845 47910.87725
691.8789 47069.42833
692.0732 46965.41199
692.2675 46907.94599
692.4618 47085.66872
692.6560 46923.12144
692.8503 47391.45093
693.0445 47270.04735
693.2387 46609.14735
693.4329 47086.75414
693.6271 47025.74515
693.8213 47058.12354
694.0155 47275.18775
694.2096 47036.98850
694.4038 46669.25523
694.5979 46781.03337
694.7920 46708.26904
694.9861 46589.24109
695.1801 46455.34490
695.3742 46347.92894
695.5682 46395.48277
695.7623 46241.80320
695.9563 46049.94948
696.1503 46536.97693
696.3443 45842.55169
696.5382 46415.16375
696.7322 46243.25725
696.9261 46526.61421
697.1201 46071.78083
697.3140 46417.92851
697.5079 46616.95011
697.7017 45861.80259
697.8956 45984.76264
698.0894 45679.45146
698.2833 46187.34771
698.4771 46314.75184
698.6709 46604.78518
698.8647 45852.56625
699.0585 46621.35324
699.2522 45691.37063
699.4460 46064.34670
699.6397 46072.76385
699.8334 45838.86534
700.0271 45645.74189
700.2208 45849.86294
700.4144 46272.33841
700.6081 46131.52008
700.8017 45853.07825
700.9954 46416.86356
701.1890 46184.62391
701.3826 45479.75402
701.5761 45521.61450
701.7697 45691.98503
701.9632 45399.65797
702.1568 45723.42135
702.3503 45534.68055
702.5438 45183.10575
702.7373 44697.42996
702.9308 45599.35540
703.1242 45691.22728
703.3177 45390.87218
703.5111 45751.04844
703.7045 45792.29453
703.8979 45859.46791
704.0913 45704.27284
704.2847 45890.55607
704.4780 46104.99888
704.6713 45106.85987
704.8647 45295.23204
705.0580 45084.65989
705.2513 44437.68608
705.4445 45047.55070
705.6378 45105.75397
705.8311 44268.58530
706.0243 44357.28283
706.2175 45069.32061
706.4107 44858.62558
706.6039 44869.90989
706.7971 44910.95118
706.9902 45128.56834
707.1834 44980.41828
707.3765 44482.63900
707.5696 44561.52675
707.7627 44724.66795
707.9558 44792.64003
708.1489 44183.43076
708.3419 43697.50922
708.5349 43955.04129
708.7280 43869.27236
708.9210 44551.04115
709.1140 44371.92581
709.3069 43988.38222
709.4999 43813.44473
709.6929 44184.45475
709.8858 43842.21869
710.0787 44006.07667
710.2716 43402.76556
710.4645 43872.85630
710.6574 43877.79191
710.8502 44212.94199
711.0431 43722.20772
711.2359 43492.01603
711.4287 43476.41051
711.6215 43691.05812
711.8143 43563.96118
712.0071 43493.38817
712.1998 43424.14635
712.3925 43664.16829
712.5853 43863.39469
712.7780 43867.04007
712.9707 43536.82559
713.1633 43663.26718
713.3560 43606.92756
713.5487 43463.73359
713.7413 43554.58148
713.9339 43484.90958
714.1265 43225.18619
714.3191 43289.45145
714.5117 42798.00038
714.7042 43222.44191
714.8968 43352.28313
715.0893 43942.77396
715.2818 43788.39807
715.4743 43847.09286
715.6668 43502.33780
715.8592 43920.84021
716.0517 43530.98888
716.2441 43576.78146
716.4366 43236.47049
716.6290 43433.17789
716.8214 43361.80618
717.0137 43445.38379
717.2061 43338.60270
717.3984 43251.70738
717.5908 42901.25897
717.7831 42759.68289
717.9754 43369.36319
718.1677 42362.74559
718.3600 43021.51569
718.5522 42673.56580
718.7445 42680.95897
718.9367 42311.03438
719.1289 42492.85304
719.3211 42208.41066
719.5133 42304.86999
719.7054 42215.59903
719.8976 42583.49614
720.0897 42378.84262
720.2818 42370.73266
720.4740 42482.87943
720.6660 42579.87123
720.8581 42528.42626
721.0502 42289.81742
721.2422 41982.21251
721.4343 42169.54021
721.6263 42381.85313
721.8183 42207.77579
722.0103 42639.48760
722.2022 42405.13854
722.3942 42595.98875
722.5861 42325.41112
722.7781 42798.98341
722.9700 42270.95563
723.1619 41951.57490
723.3538 41847.16945
723.5456 42026.14144
723.7375 41867.38290
723.9293 42149.18340
724.1211 41758.75864
724.3129 41778.76730
724.5047 41318.81400
724.6965 41329.60679
724.8883 41521.35810
725.0800 41309.84389
725.2718 41694.90298
725.4635 41388.87501
725.6552 41356.43518
725.8469 41453.97993
726.0385 41764.88207
726.2302 41483.42972
726.4218 40742.53607
726.6135 40774.68918
726.8051 40570.54765
726.9967 40945.61265
727.1882 41230.99710
727.3798 41611.75545
727.5714 41298.21143
727.7629 41745.56972
727.9544 41690.97088
728.1459 41039.28674
728.3374 40838.60628
728.5289 41577.90252
728.7204 41059.82787
728.9118 41615.62611
729.1032 41852.00266
729.2946 41576.36655
729.4860 40842.70222
729.6774 41219.75375
729.8688 41143.54883
730.0602 40847.82214
730.2515 41193.56023
730.4428 41451.87053
730.6341 41073.89741
730.8254 40901.11029
731.0167 41351.06950
731.2080 41335.36158
731.3992 41186.86337
731.5905 41079.69316
731.7817 41042.39965
731.9729 40435.50459
732.1641 40782.67626
732.3553 40324.38181
732.5464 40729.81818
732.7376 40669.50550
732.9287 40713.43443
733.1198 40596.78213
733.3109 40736.71984
733.5020 40508.30988
733.6931 41008.23953
733.8841 40875.61308
734.0752 41224.64839
734.2662 40744.74788
734.4572 40538.96797
734.6482 39998.50902
734.8392 39989.60036
735.0302 39936.80372
735.2211 39768.15350
735.4120 39700.91868
735.6030 40214.73356
735.7939 40166.50390
735.9848 40178.42308
736.1756 39726.45685
736.3665 39957.11957
736.5574 39549.86051
736.7482 39517.35924
736.9390 39395.95566
737.1298 39678.63678
737.3206 39777.61511
737.5114 40053.37410
737.7021 39435.66577
737.8929 39442.56743
738.0836 39564.85164
738.2743 39830.65750
738.4650 39837.78443
738.6557 39508.94209
738.8463 39100.57712
739.0370 39032.68696
739.2276 38847.44819
739.4182 38933.40143
739.6088 39341.90976
739.7994 39083.43562
739.9900 39208.23884
740.1806 39116.94039
740.3711 39253.04840
740.5617 39547.91494
740.7522 39313.97547
740.9427 39277.89026
741.1332 39221.48920
741.3236 38773.39364
741.5141 38968.93369
741.7045 39321.69631
741.8949 39354.17709
742.0854 39100.80240
742.2758 39220.71097
742.4661 38669.00867
742.6565 38454.23819
742.8469 38706.87561
743.0372 38965.61598
743.2275 38573.61428
743.4178 38936.84202
743.6081 38972.76339
743.7984 38815.88899
743.9886 38844.45815
744.1789 38591.71833
744.3691 38400.51997
744.5593 38359.06908
744.7495 38082.59330
744.9397 38325.46191
745.1299 37986.91220
745.3200 37529.53934
745.5102 37872.30787
745.7003 37914.47554
745.8904 38015.91143
746.0805 38021.46143
746.2706 37973.08841
746.4607 37938.17054
746.6507 37930.92073
746.8408 37551.04301
747.0308 37951.09322
747.2208 37581.06623
747.4108 37716.17073
747.6007 37871.59108
747.7907 38303.58960
747.9806 37977.98305
748.1706 38031.80367
748.3605 37730.28123
748.5504 37669.51800
748.7403 38162.58696
748.9302 37576.66310
749.1200 37611.15089
749.3098 37553.95112
749.4997 37370.96512
749.6895 37485.63089
749.8793 37288.12478
750.0691 37758.50224
750.2588 37442.15251
750.4486 37271.00376
750.6383 37440.47317
750.8280 36853.62773
751.0177 36689.99503
751.2074 36829.15450
751.3971 36981.46194
751.5868 36954.69499
751.7764 36796.65324
751.9660 36474.83543
752.1557 36612.19269
752.3453 36784.30399
752.5348 37019.22648
752.7244 37310.89819
752.9140 37329.53471
753.1035 36984.18574
753.2930 37107.06386
753.4825 36770.99219
753.6720 37024.89936
753.8615 37050.84712
754.0510 36673.16072
754.2404 36635.33474
754.4299 36607.97388
754.6193 36561.01395
754.8087 36386.83421
754.9981 36426.19617
755.1875 36119.02134
755.3768 35989.28252
755.5662 36161.37333
755.7555 36170.63015
755.9448 36291.43983
756.1341 36183.57331
756.3234 35724.74640
756.5127 35785.83730
756.7019 36096.08409
756.8912 36100.11859
757.0804 35907.11801
757.2696 36049.43136
757.4588 35773.73381
757.6480 35551.20152
757.8371 35231.61600
758.0263 35280.84917
758.2154 35439.42339
758.4045 35163.68488
758.5936 35000.72800
758.7827 35361.84633
758.9718 35601.49964
759.1609 35250.27300
759.3499 35194.83448
759.5389 34655.74767
759.7280 35020.51138
759.9170 35123.38085
760.1059 35155.49300
760.2949 35056.78091
760.4839 35507.14972
760.6728 35198.41843
760.8617 35099.07146
761.0506 34727.50849
761.2395 34457.46333
761.4284 34836.87002
761.6173 34677.45614
761.8061 34687.94174
761.9950 34670.47256
762.1838 34389.14310
762.3726 34881.00375
762.5614 34444.52017
762.7502 34797.13943
762.9389 34091.88043
763.1277 34220.71815
763.3164 34685.99617
763.5051 34515.15461
763.6938 34782.41453
763.8825 34401.61523
764.0712 35119.05964
764.2598 34713.07031
764.4484 34834.65822
764.6371 34918.72733
764.8257 34638.42185
765.0143 34850.28422
765.2029 34446.26094
765.3914 34541.92156
765.5800 34790.31969
765.7685 34219.16169
765.9570 34304.91014
766.1455 33931.62688
766.3340 33544.02831
766.5225 33691.19535
766.7110 33640.22140
766.8994 33429.48542
767.0878 33195.36163
767.2762 33456.12949
767.4646 33352.42035
767.6530 33508.37318
767.8414 33653.73800
768.0298 33357.84747
768.2181 33196.69281
768.4064 33195.42307
768.5947 33227.86290
768.7830 33131.79268
768.9713 33100.35636
769.1596 32855.82889
769.3478 32714.02754
769.5360 32908.13401
769.7243 32756.40001
769.9125 32515.96848
770.1007 32342.93560
770.2888 32323.99189
770.4770 32523.52548
770.6651 32558.99630
770.8533 32228.59750
771.0414 32044.79231
771.2295 32342.68984
771.4176 32546.93377
771.6056 32647.42759
771.7937 32382.99387
771.9817 32032.62737
772.1698 32603.72394
772.3578 32534.78931
772.5458 32128.18560
772.7337 31669.46107
772.9217 32027.89657
773.1096 31790.92610
773.2976 32065.86591
773.4855 32303.36884
773.6734 31595.97996
773.8613 31697.78448
774.0492 31859.02106
774.2370 31648.14172
774.4249 31701.26603
774.6127 31983.23037
774.8005 31771.20416
774.9883 31750.04865
775.1761 31960.19072
775.3639 31457.16863
775.5516 31600.23973
775.7394 31323.23148
775.9271 31357.67831
776.1148 31324.72650
776.3025 30666.63222
776.4902 30804.70627
776.6778 30780.33544
776.8655 31222.86053
777.0531 31375.49564
777.2407 31331.91487
777.4283 31023.38837
777.6159 31166.33659
777.8035 30885.47816
777.9911 30657.37540
778.1786 30978.27162
778.3661 30503.63438
778.5536 30816.87120
778.7411 30858.58833
778.9286 31209.71257
779.1161 30939.64693
779.3036 30467.05766
779.4910 30503.30671
779.6784 30568.96459
779.8658 30767.88379
780.0532 30172.33448
780.2406 30556.00095
780.4280 30252.63533
780.6153 30434.37208
780.8026 30401.58410
780.9900 30581.10904
781.1773 30021.29678
781.3646 30503.36815
781.5518 30240.49088
781.7391 30078.33271
781.9263 30248.33460
782.1136 30112.36995
782.3008 29821.74271
782.4880 29950.25275
782.6752 29807.28405
782.8623 29706.89262
783.0495 30028.48515
783.2366 29383.10876
783.4237 29557.84146
783.6108 29898.25482
783.7979 29679.98231
783.9850 29676.60316
784.1721 29917.25997
784.3591 29455.17678
784.5462 29358.28738
784.7332 29434.00079
784.9202 29640.82515
785.1072 29148.47298
785.2941 29120.21101
785.4811 28895.22117
785.6681 29047.67196
785.8550 29098.93262
786.0419 28852.76678
786.2288 28706.88996
786.4157 28608.11643
786.6025 28693.76248
786.7894 28859.17692
786.9762 28738.26484
787.1631 28161.45444
787.3499 28468.50640
787.5367 28631.17656
787.7234 28186.89022
787.9102 28595.35758
788.0970 28662.24424
788.2837 28749.30339
788.4704 28157.85002
788.6571 27866.77222
788.8438 27846.04678
789.0305 27771.11160
789.2171 27747.88763
789.4038 27670.20818
789.5904 27893.27294
789.7770 27928.08840
789.9636 27934.90814
790.1502 27995.93761
790.3368 27933.82272
790.5233 27995.20034
790.7099 27659.96834
790.8964 27184.90103
791.0829 27108.61419
791.2694 27007.85413
791.4559 27108.59371
791.6423 27055.98139
791.8288 27176.58627
792.0152 27478.84598
792.2016 27479.50133
792.3880 27746.86365
792.5744 27183.73368
792.7608 26702.54295
792.9471 26819.17477
793.1335 27365.16323
793.3198 27037.36536
793.5061 27068.04393
793.6924 26674.32194
793.8787 26515.78867
794.0650 26479.06860
794.2512 26825.85114
794.4375 26916.59664
794.6237 27054.46590
794.8099 27050.34948
794.9961 26500.46987
795.1823 26452.87507
795.3684 26630.59780
795.5546 26227.80331
795.7407 26138.18420
795.9268 25999.37288
796.1129 26353.95818
796.2990 26439.07177
796.4851 26819.50244
796.6712 26560.06576
796.8572 26431.06421
797.0432 26148.97699
797.2292 26400.38564
797.4152 26352.23789
797.6012 25827.63022
797.7872 25623.05862
797.9731 25711.40799
798.1591 25450.12814
798.3450 25404.35603
798.5309 25651.68922
798.7168 25559.53063
798.9027 25487.64692
799.0885 25752.34688
799.2744 25617.20143
799.4602 25826.05328
799.6460 25726.07145
799.8318 26256.24960
800.0176 25760.62068
800.2034 25852.06248
800.3892 25336.42491
800.5749 25254.93623
800.7606 25161.20070
800.9463 25408.82061
801.1320 25301.11793
801.3177 25289.85410
801.5034 25241.39916
801.6890 25711.42847
801.8747 25235.05046
802.0603 24976.12577
802.2459 24875.79578
802.4315 24990.19531
802.6171 24610.21519
802.8026 24965.31249
802.9882 24948.49867
803.1737 24636.77735
803.3592 24871.02401
803.5447 24741.01896
803.7302 25035.08679
803.9157 24944.89425
804.1012 25030.88845
804.2866 24478.91992
804.4720 24609.80560
804.6574 24510.97063
804.8428 24357.14769
805.0282 24305.96895
805.2136 24091.54663
805.3989 24346.55970
805.5843 24195.37864
805.7696 24120.17723
805.9549 24022.85775
806.1402 23810.44244
806.3255 23685.57778
806.5107 23835.46861
806.6960 24097.85437
806.8812 23618.17913
807.0664 23772.18638
807.2516 23504.14823
807.4368 23387.94648
807.6220 23246.22705
807.8072 23323.16923
807.9923 23452.86709
808.1774 23325.79063
808.3625 23628.74665
808.5476 23695.75619
808.7327 23816.15627
808.9178 23379.79557
809.1028 23330.72624
809.2879 23240.06266
809.4729 23206.63981
809.6579 22980.72838
809.8429 23165.78283
810.0279 23122.57069
810.2128 22887.87347
810.3978 22979.84775
810.5827 23167.29833
810.7676 23285.22037
810.9525 23368.51126
811.1374 23100.82126
811.3223 23149.05093
811.5072 22822.42039
811.6920 22823.26006
811.8768 22907.49301
812.0616 22827.51983
812.2464 22871.24397
812.4312 22626.88034
812.6160 22774.43648
812.8007 22986.17597
812.9855 23010.28057
813.1702 22786.27374
813.3549 22791.02503
813.5396 22369.51210
813.7243 22454.13417
813.9089 22426.56851
814.0936 22474.22475
814.2782 22495.01163
814.4628 22365.55952
814.6474 22370.72040
814.8320 22342.54035
815.0166 22097.23466
815.2012 22245.05704
815.3857 22012.36683
815.5702 22012.65355
815.7547 22041.63231
815.9392 22102.19074
816.1237 21843.16365
816.3082 21682.76674
816.4926 21898.80697
816.6771 22009.49968
816.8615 21645.53467
817.0459 21872.10145
817.2303 21772.40633
817.4147 21862.41456
817.5990 21846.68616
817.7834 21588.58066
817.9677 21664.70366
818.1520 21901.65364
818.3363 21760.50764
818.5206 21555.73124
818.7049 21380.99855
818.8891 21487.04237
819.0734 21503.46708
819.2576 21627.94262
819.4418 21294.75858
819.6260 21233.68815
819.8102 21333.46519
819.9944 21316.79473
820.1785 21073.61892
820.3627 21234.87598
820.5468 21238.89000
820.7309 20994.69020
820.9150 20781.20994
821.0991 20576.92506
821.2831 20915.88436
821.4672 20757.69926
821.6512 20651.61448
821.8352 20742.09374
822.0192 21035.50622
822.2032 20725.09560
822.3872 20860.24105
822.5711 20580.34516
822.7551 20536.31384
822.9390 20558.59574
823.1229 20637.13534
823.3068 20625.15472
823.4907 20395.08591
823.6745 20391.33813
823.8584 20250.70411
824.0422 20365.39036
824.2261 20440.63274
824.4099 20457.73328
824.5937 20501.64172
824.7774 20521.54798
824.9612 20462.17737
825.1449 20154.01951
825.3287 20167.63850
825.5124 20106.75239
825.6961 20325.35258
825.8798 20271.67531
826.0634 20339.48356
826.2471 20180.21303
826.4307 20502.76811
826.6144 20340.87618
826.7980 20453.92405
826.9816 20234.27940
827.1652 20322.99741
827.3487 20280.95261
827.5323 19908.09942
827.7158 19778.60636
827.8993 20100.38321
828.0828 19845.71829
828.2663 19590.25467
828.4498 19781.00248
828.6333 19942.56674
828.8167 19642.90795
829.0001 19723.29072
829.1836 19826.46739
829.3670 19773.28164
829.5504 20048.36480
829.7337 19906.31769
829.9171 19849.52752
830.1004 19882.09022
830.2837 19826.26259
830.4671 19543.78626
830.6504 19415.19430
830.8336 19530.10583
831.0169 19370.38475
831.2002 19772.85157
831.3834 19662.54797
831.5666 19313.14402
831.7498 19400.30557
831.9330 19757.81948
832.1162 19622.24394
832.2993 19491.25586
832.4825 19557.24142
832.6656 19390.68012
832.8487 18969.90446
833.0318 19173.12440
833.2149 19012.15405
833.3980 18996.20038
833.5811 19144.00228
833.7641 19099.80712
833.9471 18941.43769
834.1301 18722.77607
834.3131 18515.33731
834.4961 18738.75023
834.6791 18830.86786
834.8620 19244.84426
835.0450 19068.86231
835.2279 19181.25483
835.4108 19126.18495
835.5937 19168.08639
835.7766 18881.69844
835.9594 18866.85067
836.1423 18977.70722
836.3251 19287.72873
836.5079 19208.75905
836.6907 18676.41006
836.8735 18615.25771
837.0563 18612.65679
837.2390 18715.56722
837.4218 18558.81569
837.6045 18875.59550
837.7872 18899.43385
837.9699 18754.58102
838.1526 18524.77845
838.3352 18447.71339
838.5179 18391.20993
838.7005 18510.85226
838.8831 18658.57225
839.0658 18704.71298
839.2483 18685.93311
839.4309 18697.29934
839.6135 18669.75416
839.7960 18204.76285
839.9786 18317.83121
840.1611 18171.97487
840.3436 18383.34573
840.5261 18149.89777
840.7085 18093.00520
840.8910 17948.60292
841.0734 17977.17209
841.2559 17947.80421
841.4383 18142.58652
841.6207 18319.59246
841.8030 18184.93852
841.9854 18128.33266
842.1678 17943.46252
842.3501 18084.77236
842.5324 17918.92785
842.7147 18081.63897
842.8970 18217.00971
843.0793 18105.47733
843.2615 18079.40669
843.4438 18133.98505
843.6260 18109.53231
843.8082 18009.65287
843.9904 18047.82701
844.1726 17828.87867
844.3548 17781.42723
844.5369 17652.20040
844.7191 17707.70036
844.9012 17583.10194
845.0833 17646.26130
845.2654 17961.83280
845.4475 18007.48202
845.6296 17696.66181
845.8116 17603.47923
845.9936 17573.16929
846.1757 17654.16645
846.3577 17670.22253
846.5397 17694.88007
846.7216 17572.16579
846.9036 17454.48950
847.0855 17265.46199
847.2675 17466.65444
847.4494 17380.92646
847.6313 17633.60485
847.8132 17665.12309
847.9950 17544.12909
848.1769 17508.55588
848.3587 17719.27138
848.5406 17432.20760
848.7224 17381.35654
848.9042 17274.41161
849.0860 17392.94804
849.2677 17211.82568
849.4495 17040.71790
849.6312 16989.84635
849.8129 17039.03856
849.9946 17238.69503
850.1763 17141.55988
850.3580 16946.67517
850.5397 16918.72040
850.7213 16608.43265
850.9029 16649.06435
851.0845 16760.35097
851.2661 16718.51097
851.4477 16762.33750
851.6293 16865.67801
851.8109 16838.25570
851.9924 16994.61812
852.1739 17033.38617
852.3554 16941.32997
852.5369 16795.73987
852.7184 16588.75167
852.8999 16524.19970
853.0813 16502.92130
853.2628 16615.58006
853.4442 16654.36859
853.6256 16606.91715
853.8070 16767.98990
853.9883 16763.75060
854.1697 16632.43485
854.3510 16446.72504
854.5324 16452.76655
854.7137 16498.45673
854.8950 16432.53262
855.0763 16400.93246
855.2575 16433.63852
855.4388 16473.47151
855.6200 16467.75768
855.8013 16414.32617
855.9825 16382.62362
856.1637 16418.42211
856.3449 16282.94898
856.5260 16337.13823
856.7072 16341.19321
856.8883 16524.62977
857.0694 16431.44719
857.2505 16388.39889
857.4316 16366.62898
857.6127 16243.91469
857.7938 16392.14667
857.9748 16343.44597
858.1558 16136.37585
858.3368 16108.25724
858.5178 16051.11892
858.6988 16200.19056
858.8798 16150.13820
859.0607 16297.36668
859.2417 16153.90647
859.4226 16097.99692
859.6035 16114.79026
859.7844 16208.21860
859.9653 16137.85039
860.1462 15956.44132
860.3270 15886.29839
860.5078 15819.45269
860.6887 15838.74456
860.8695 15763.39979
861.0503 15870.42663
861.2310 15641.36133
861.4118 15591.16561
861.5925 15510.33229
861.7733 15481.23065
861.9540 15311.82268
862.1347 15175.28460
862.3154 15084.31383
862.4960 15179.62629
862.6767 15273.66902
862.8573 15205.55358
863.0380 15191.52499
863.2186 15254.35667
863.3992 15176.10379
863.5797 15142.04607
863.7603 15159.96579
863.9409 15045.07475
864.1214 15153.08462
864.3019 15235.94543
864.4824 15239.26314
864.6629 15091.89131
864.8434 14923.60972
865.0238 15094.84039
865.2043 15178.84807
865.3847 14780.74342
865.5651 14675.98982
865.7455 14905.44424
865.9259 14887.91363
866.1063 14798.62219
866.2866 14750.74068
866.4670 14803.80355
866.6473 14702.65437
866.8276 14634.74373
867.0079 14609.08268
867.1882 14521.51154
867.3684 14425.17509
867.5487 14386.69375
867.7289 14406.82529
867.9091 14440.88301
868.0893 14261.09183
868.2695 14036.36822
868.4497 13967.51551
868.6299 14099.52758
868.8100 14107.43273
868.9901 14017.32211
869.1703 14126.19213
869.3504 14126.97036
869.5304 14097.64344
869.7105 14199.59133
869.8906 14163.60852
870.0706 14078.41302
870.2506 14182.32695
870.4306 14163.99763
870.6106 14110.91428
870.7906 14200.26716
870.9706 14095.06300
871.1505 13905.03198
871.3305 13948.53084
871.5104 13782.46105
871.6903 13711.68325
871.8702 13865.54715
872.0500 13801.87580
872.2299 13826.84054
872.4097 13666.38218
872.5896 13778.56991
872.7694 13795.56805
872.9492 13654.13533
873.1290 13326.31697
873.3087 13396.91046
873.4885 13680.34933
873.6682 13640.59826
873.8480 13510.63416
874.0277 13598.65586
874.2074 13362.29978
874.3870 13462.85505
874.5667 13517.41294
874.7463 13611.94718
874.9260 13448.92886
875.1056 13415.48553
875.2852 13310.21994
875.4648 13279.88952
875.6444 13223.77518
875.8239 13411.88111
876.0035 13218.53238
876.1830 13228.03495
876.3625 13122.72840
876.5420 13106.52897
876.7215 13119.55405
876.9010 12888.62509
877.0804 13009.86484
877.2599 12945.72246
877.4393 13123.69095
877.6187 13155.96693
877.7981 13147.52930
877.9775 12947.31988
878.1568 13177.55252
878.3362 13068.35483
878.5155 12994.77131
878.6948 12720.95789
878.8741 12777.21559
879.0534 12716.80051
879.2327 12677.09040
879.4119 12608.81112
879.5912 12495.41509
879.7704 12629.08601
879.9496 12752.74237
880.1288 12585.13660
880.3080 12363.07535
880.4872 12517.32836
880.6663 12517.53315
880.8455 12562.28127
881.0246 12600.66021
881.2037 12593.65615
881.3828 12464.77748
881.5619 12416.30206
881.7409 12372.16833
881.9200 12234.93395
882.0990 12354.28957
882.2780 12319.33074
882.4570 12263.54407
882.6360 12295.49238
882.8150 12093.80842
882.9940 12009.78026
883.1729 12003.32916
883.3518 12273.64056
883.5308 12204.03010
883.7096 12239.17324
883.8885 12053.13576
884.0674 12027.84335
884.2463 11970.52070
884.4251 12011.05000
884.6039 11848.25697
884.7827 11914.71355
884.9615 11847.56066
885.1403 11851.67707
885.3191 11902.26190
885.4978 11637.52098
885.6765 11715.32332
885.8553 11849.93630
886.0340 11792.61366
886.2127 11767.91515
886.3913 11669.63313
886.5700 11614.95237
886.7486 11533.44321
886.9273 11515.54396
887.1059 11396.80274
887.2845 11395.92211
887.4630 11481.60912
887.6416 11519.16887
887.8202 11554.10722
887.9987 11512.84065
888.1772 11536.57660
888.3557 11502.49840
888.5342 11392.39960
888.7127 11496.43642
888.8912 11468.33828
889.0696 11419.24847
889.2481 11259.13828
889.4265 11184.42838
889.6049 11140.78616
889.7833 11162.37175
889.9616 11090.61093
890.1400 11084.95853
890.3183 10764.51286
890.4967 10913.60499
890.6750 11126.67566
890.8533 11041.33680
891.0316 10983.68648
891.2098 10896.32013
891.3881 10822.73662
891.5663 10818.10821
891.7445 10809.58866
891.9227 10717.26623
892.1009 10713.33413
892.2791 10876.80299
892.4573 10887.51387
892.6354 10746.32690
892.8136 10766.54035
892.9917 10723.96308
893.1698 10572.43388
893.3479 10748.47727
893.5259 10943.11622
893.7040 10775.46950
893.8820 10675.50814
894.0601 10684.25297
894.2381 10742.33336
894.4161 10794.84328
894.5941 10793.88074
894.7720 10783.80473
894.9500 10737.86879
895.1279 10801.70398
895.3058 10669.85575
895.4838 10708.64428
895.6616 10570.83646
895.8395 10574.95288
896.0174 10505.30146
896.1952 10508.49629
896.3731 10554.16599
896.5509 10493.85331
896.7287 10505.28098
896.9065 10480.33672
897.0842 10491.47767
897.2620 10406.24121
897.4397 10329.50382
897.6175 10380.55968
897.7952 10431.16499
897.9729 10568.50178
898.1506 10532.10937
898.3282 10397.80358
898.5059 10322.41785
898.6835 10333.08777
898.8611 10459.40648
899.0388 10295.15939
899.2163 10129.49919
899.3939 10111.27227
899.5715 10207.83400
899.7490 10141.84845
899.9266 10158.25268
900.1041 10253.11459
900.2816 10223.35760
900.4591 10172.03550
900.6365 10180.84177
900.8140 10069.45275
900.9914 10104.41158
901.1689 10097.67376
901.3463 10063.98467
901.5237 10064.57858
901.7011 10013.25649
901.8784 9974.32460
902.0558 9874.40421
902.2331 9967.66870
902.4104 10064.55810
902.5878 10051.43062
902.7650 9979.05541
902.9423 9924.14937
903.1196 10001.84930
903.2968 10119.50511
903.4741 10102.38409
903.6513 9944.23994
903.8285 9849.19371
904.0057 9902.78905
904.1828 9769.07717
904.3600 9645.68706
904.5371 9677.28721
904.7143 9712.53276
904.8914 9750.76833
905.0685 9865.76178
905.2456 9848.23117
905.4226 9843.82803
905.5997 9903.38296
905.7767 9951.77647
905.9537 9750.39970
906.1307 9690.20990
906.3077 9587.01275
906.4847 9558.83270
906.6617 9558.52551
906.8386 9626.53855
907.0156 9557.05097
907.1925 9448.93870
907.3694 9494.71080
907.5463 9523.44380
907.7231 9569.42070
907.9000 9578.02217
908.0768 9488.54641
908.2537 9292.92444
908.4305 9392.78340
908.6073 9559.65189
908.7841 9533.99084
908.9608 9396.49022
909.1376 9354.36350
909.3143 9308.26372
909.4910 9253.39864
909.6677 9245.16581
909.8444 9297.55285
910.0211 9332.30688
910.1978 9248.31968
910.3744 9292.82204
910.5510 9335.91130
910.7277 9373.51201
910.9043 9232.46840
911.0808 9270.62206
911.2574 9255.13942
911.4340 9171.23414
911.6105 9049.87151
911.7870 9090.89232
911.9636 9152.80242
912.1401 9109.71315
912.3165 9160.68710
912.4930 9087.24694
912.6695 8984.19315
912.8459 8989.35403
913.0223 8981.32599
913.1987 9029.08462
913.3751 8968.42379
913.5515 8900.86130
913.7279 8934.05888
913.9042 8901.59857
914.0805 8846.28293
914.2568 8812.16377
914.4331 8783.69701
914.6094 8794.12117
914.7857 8758.26124
914.9620 8762.07046
915.1382 8700.20132
915.3144 8608.90288
915.4906 8740.13671
915.6668 8770.85625
915.8430 8675.72810
916.0192 8476.56314
916.1953 8631.61485
916.3715 8688.36406
916.5476 8640.70783
916.7237 8669.01076
916.8998 8645.68440
917.0759 8586.80529
917.2519 8515.31070
917.4280 8591.92522
917.6040 8553.62820
917.7800 8524.97712
917.9560 8501.38452
918.1320 8466.22089
918.3080 8480.80243
918.4839 8374.41045
918.6599 8309.38745
918.8358 8375.45492
919.0117 8371.17466
919.1876 8292.14355
919.3635 8324.64481
919.5394 8385.96100
919.7152 8318.02988
919.8911 8289.25591
920.0669 8261.28066
920.2427 8182.24955
920.4185 8095.33375
920.5942 8084.29520
920.7700 8060.25205
920.9458 8112.82341
921.1215 8146.53297
921.2972 8116.61215
921.4729 8137.31711
921.6486 8010.50689
921.8243 7847.28378
921.9999 7895.69776
922.1756 7888.24315
922.3512 7919.49516
922.5268 7859.53063
922.7024 7968.50305
922.8780 7998.69011
923.0535 7996.88790
923.2291 7969.54751
923.4046 7997.48181
923.5801 8128.98188
923.7557 8003.23660
923.9311 7954.86358
924.1066 7917.73390
924.2821 8016.05688
924.4575 7991.31742
924.6330 7959.49199
924.8084 7853.22289
924.9838 7728.84975
925.1592 7728.82927
925.3345 7721.90713
925.5099 7736.01764
925.6852 7726.31026
925.8606 7684.34738
926.0359 7597.18583
926.2112 7598.66037
926.3864 7600.81074
926.5617 7468.38908
926.7370 7518.97391
926.9122 7471.52247
927.0874 7427.61402
927.2626 7399.78213
927.4378 7401.91201
927.6130 7397.11977
927.7882 7391.22162
927.9633 7344.46649
928.1384 7240.73687
928.3135 7138.72755
928.4886 7100.08238
928.6637 7147.77957
928.8388 7172.76479
929.0139 7188.49319
929.1889 7147.63621
929.3639 7110.17887
929.5389 7138.29748
929.7139 7127.17701
929.8889 7145.95688
930.0639 7184.60205
930.2388 7095.10582
930.4138 7045.38113
930.5887 7076.40786
930.7636 7114.60248
930.9385 7073.49975
931.1134 6937.35078
931.2882 6928.64692
931.4631 6845.06931
931.6379 6836.44736
931.8127 6815.96767
931.9875 6847.54735
932.1623 6790.61382
932.3371 6807.61196
932.5118 6826.90383
932.6866 6797.10588
932.8613 6738.26774
933.0360 6715.18713
933.2107 6657.59825
933.3854 6624.54404
933.5600 6640.25196
933.7347 6528.76054
933.9093 6543.40351
934.0839 6552.53745
934.2586 6582.76547
934.4331 6581.08614
934.6077 6519.33988
934.7823 6464.67960
934.9568 6481.12478
935.1314 6429.84365
935.3059 6425.19476
935.4804 6352.61475
935.6549 6366.33614
935.8293 6400.68057
936.0038 6386.01712
936.1782 6386.22191
936.3526 6385.56656
936.5271 6310.18083
936.7015 6253.88217
936.8758 6303.23822
937.0502 6300.41202
937.2246 6279.97329
937.3989 6342.19058
937.5732 6252.05948
937.7475 6209.62557
937.9218 6175.34257
938.0961 6162.54277
938.2703 6167.04830
938.4446 6131.47508
938.6188 6133.72785
938.7930 6091.92880
938.9672 6036.28549
939.1414 6074.97162
939.3156 6008.88367
939.4897 5928.58282
939.6639 5905.99372
939.8380 5951.70438
940.0121 5914.02176
940.1862 5971.24200
940.3603 5973.33093
940.5344 5978.38942
940.7084 6009.78478
940.8824 5998.99198
941.0565 5962.82485
941.2305 5922.76658
941.4045 5855.69561
941.5784 5847.50373
941.7524 5867.02088
941.9263 5918.69113
942.1003 5910.41733
942.2742 5865.34154
942.4481 5761.96008
942.6220 5757.29071
942.7958 5747.35806
942.9697 5758.58093
943.1435 5790.38588
943.3174 5796.03828
943.4912 5781.29290
943.6650 5752.96950
943.8387 5696.91659
944.0125 5648.74837
944.1863 5666.77049
944.3600 5662.16256
944.5337 5623.16924
944.7074 5659.04965
944.8811 5634.57642
945.0548 5589.93070
945.2284 5513.50051
945.4021 5504.48945
945.5757 5553.14918
945.7493 5481.51124
945.9229 5379.82959
946.0965 5363.71208
946.2701 5355.56116
946.4436 5371.33052
946.6172 5381.89804
946.7907 5390.15135
946.9642 5366.66115
947.1377 5341.53257
947.3112 5354.08662
947.4847 5389.63936
947.6581 5400.16592
947.8315 5390.27423
948.0050 5312.06230
948.1784 5283.51362
948.3518 5293.93778
948.5251 5253.85903
948.6985 5313.90547
948.8718 5300.24552
949.0452 5210.40113
949.2185 5216.60648
949.3918 5183.30651
949.5651 5215.91017
949.7383 5145.76724
949.9116 5156.15044
950.0848 5172.24748
950.2581 5184.76057
950.4313 5214.82475
950.6045 5209.70483
950.7776 5223.18046
950.9508 5156.60100
951.1239 5118.77501
951.2971 5041.58707
951.4702 5084.26674
951.6433 5064.29904
951.8164 5024.28173
951.9895 5074.31361
952.1625 4996.06073
952.3356 5020.65683
952.5086 4980.20945
952.6816 5026.00203
952.8546 4990.73601
953.0276 4960.07791
953.2006 4973.14395
953.3735 4955.92054
953.5465 4948.69121
953.7194 4936.85395
953.8923 4895.64882
954.0652 4913.24087
954.2381 4836.36012
954.4109 4800.97122
954.5838 4813.32047
954.7566 4786.51256
954.9294 4748.15411
955.1022 4764.18970
955.2750 4775.67881
955.4478 4767.40501
955.6206 4765.17273
955.7933 4794.13101
955.9660 4761.62974
956.1388 4775.22825
956.3115 4732.58955
956.4841 4680.53018
956.6568 4646.49294
956.8295 4630.78502
957.0021 4619.91030
957.1747 4634.40992
957.3473 4596.11291
957.5199 4575.63322
957.6925 4592.71328
957.8651 4601.78578
958.0376 4639.83704
958.2102 4582.90351
958.3827 4623.33041
958.5552 4673.01413
958.7277 4645.75567
958.9001 4569.87843
959.0726 4506.08420
959.2450 4494.16502
959.4175 4509.17663
959.5899 4428.17947
959.7623 4443.53924
959.9347 4384.45534
960.1070 4356.13193
960.2794 4356.80776
960.4517 4345.89209
960.6241 4360.26883
960.7964 4399.40551
960.9687 4407.06491
961.1409 4382.96032
961.3132 4355.10795
961.4855 4299.87423
961.6577 4280.25469
961.8299 4322.09469
962.0021 4321.25502
962.1743 4262.94935
962.3465 4231.02152
962.5186 4233.29476
962.6908 4232.37318
962.8629 4240.72889
963.0350 4222.80916
963.2071 4214.82209
963.3792 4182.23890
963.5513 4132.71902
963.7233 4189.14056
963.8954 4181.03060
964.0674 4151.23266
964.2394 4142.83598
964.4114 4114.26682
964.5834 4119.98065
964.7553 4129.46275
964.9273 4112.42365
965.0992 4064.78790
965.2711 4084.79655
965.4430 4117.64597
965.6149 4106.66886
965.7868 4069.98974
965.9587 4034.39604
966.1305 4059.05358
966.3023 4076.99379
966.4741 4074.35191
966.6459 4031.75416
966.8177 4047.62592
966.9895 4017.09070
967.1613 4011.39735
967.3330 3989.70936
967.5047 3968.77912
967.6764 3964.25311
967.8481 3955.26253
968.0198 3920.91809
968.1915 3895.58472
968.3631 3912.58286
968.5347 3902.89597
968.7064 3893.86442
968.8780 3870.49710
969.0496 3881.02366
969.2211 3834.69861
969.3927 3875.20743
969.5642 3826.79345
969.7358 3806.49808
969.9073 3801.09144
970.0788 3838.46687
970.2503 3856.16132
970.4217 3849.97645
970.5932 3821.20249
970.7646 3807.44014
970.9360 3801.99255
971.1074 3815.46818
971.2788 3840.90395
971.4502 3826.48625
971.6216 3785.64975
971.7929 3749.33927
971.9643 3752.06307
972.1356 3774.16065
972.3069 3758.49369
972.4782 3733.03744
972.6494 3698.38581
972.8207 3684.58250
972.9919 3683.80427
973.1632 3658.69617
973.3344 3627.09601
973.5056 3610.65083
973.6768 3604.15876
973.8479 3654.17016
974.0191 3665.14727
974.1902 3645.95781
974.3614 3613.51798
974.5325 3626.07203
974.7036 3623.38919
974.8746 3598.48589
975.0457 3566.98813
975.2167 3552.95955
975.3878 3527.35994
975.5588 3535.42893
975.7298 3536.94443
975.9008 3521.83042
976.0718 3512.08209
976.2427 3494.22380
976.4137 3481.05536
976.5846 3479.49891
976.7555 3446.95668
976.9264 3446.81333
977.0973 3455.84487
977.2682 3466.65814
977.4390 3469.91441
977.6098 3478.33156
977.7807 3488.26421
977.9515 3488.73525
978.1223 3493.77325
978.2930 3451.93325
978.4638 3432.86666
978.6346 3390.28939
978.8053 3380.93017
978.9760 3369.05195
979.1467 3349.22761
979.3174 3349.39145
979.4881 3344.72208
979.6587 3351.52134
979.8294 3353.15971
980.0000 3327.31435
980.1706 3309.98853
980.3412 3284.90092
980.5118 3261.69743
980.6824 3266.03912
980.8529 3300.85459
981.0235 3302.12433
981.1940 3301.34610
981.3645 3261.49263
981.5350 3261.96367
981.7055 3248.34467
981.8759 3270.56513
982.0464 3258.37972
982.2168 3230.52735
982.3872 3248.16036
982.5576 3238.63730
982.7280 3225.14119
982.8984 3240.74671
983.0687 3232.71867
983.2391 3214.73751
983.4094 3202.63401
983.5797 3191.10395
983.7500 3192.74232
983.9203 3156.77999
984.0906 3167.61375
984.2608 3138.36875
984.4311 3152.23350
984.6013 3124.52448
984.7715 3165.60674
984.9417 3161.30600
985.1119 3127.96507
985.2820 3092.59665
985.4522 3088.11160
985.6223 3096.40587
985.7924 3089.11510
985.9625 3103.55328
986.1326 3122.27172
986.3027 3108.59129
986.4727 3101.62819
986.6428 3098.39240
986.8128 3069.80276
986.9828 3043.50684
987.1528 3049.20019
987.3228 3058.12934
987.4928 3062.77823
987.6627 3063.02398
987.8327 3046.04632
988.0026 3022.84283
988.1725 2998.43105
988.3424 2978.11520
988.5123 2998.14433
988.6821 2984.58678
988.8520 2996.19876
989.0218 2971.47978
989.1916 3013.70889
989.3614 2949.42315
989.5312 2951.94216
989.7010 2930.76616
989.8707 2922.22613
990.0405 2928.45195
990.2102 2934.53442
990.3799 2918.02779
990.5496 2910.98278
990.7193 2902.05364
990.8890 2880.85716
991.0586 2874.56990
991.2283 2895.76637
991.3979 2886.87819
991.5675 2913.44034
991.7371 2885.42413
991.9067 2865.68171
992.0762 2832.99613
992.2458 2848.68357
992.4153 2868.48743
992.5848 2875.65532
992.7543 2871.37507
992.9238 2853.23006
993.0933 2846.71752
993.2627 2837.99317
993.4322 2823.47308
993.6016 2830.29281
993.7710 2800.47439
993.9404 2803.17771
994.1098 2799.51184
994.2792 2787.98178
994.4485 2768.30080
994.6179 2773.44120
994.7872 2785.11462
994.9565 2777.57810
995.1258 2780.21998
995.2951 2777.29138
995.4643 2779.62607
995.6336 2774.83382
995.8028 2754.08790
995.9720 2728.87740
996.1412 2743.74565
996.3104 2739.52684
996.4796 2737.43791
996.6487 2738.42093
996.8179 2734.05876
996.9870 2739.30156
997.1561 2701.94661
997.3252 2714.31634
997.4943 2700.39015
997.6634 2692.54643
997.8324 2704.32225
998.0014 2698.85418
998.1705 2682.92098
998.3395 2650.27636
998.5085 2627.85110
998.6774 2640.11843
998.8464 2634.26124
999.0153 2646.30330
999.1843 2643.94814
999.3532 2640.07748
999.5221 2631.12785
999.6910 2654.43374
999.8599 2671.16564
1000.0287 2673.09073
1000.1976 2664.79646
1000.3664 2653.43023
1000.5352 2653.90126
1000.7040 2650.09204
1000.8728 2628.32213
1001.0415 2604.99577
1001.2103 2582.34524
1001.3790 2583.69690
1001.5478 2569.46351
1001.7165 2563.58584
1001.8851 2559.10079
1002.0538 2570.61037
1002.2225 2569.58639
1002.3911 2574.72679
1002.5598 2554.88197
1002.7284 2558.13825
1002.8970 2551.76906
1003.0656 2563.95448
1003.2341 2532.98919
1003.4027 2532.60008
1003.5712 2487.42188
1003.7398 2496.41247
1003.9083 2490.98535
1004.0768 2484.18609
1004.2453 2459.13944
1004.4137 2481.13462
1004.5822 2467.53611
1004.7506 2475.29791
1004.9190 2463.21489
1005.0874 2458.75032
1005.2558 2450.98852
1005.4242 2454.10143
1005.5926 2453.32320
1005.7609 2439.88853
1005.9292 2420.47379
1006.0976 2450.76324
1006.2659 2441.05587
1006.4342 2456.72283
1006.6024 2445.66380
1006.7707 2452.05346
1006.9389 2438.57783
1007.1071 2453.73280
1007.2754 2448.89959
1007.4436 2441.07635
1007.6117 2412.73246
1007.7799 2413.16254
1007.9481 2409.84483
1008.1162 2419.63412
1008.2843 2405.78985
1008.4524 2405.97417
1008.6205 2392.47805
1008.7886 2392.08894
1008.9566 2388.44355
1009.1247 2371.83453
1009.2927 2356.84340
1009.4607 2358.97328
1009.6287 2350.55613
1009.7967 2353.15705
1009.9647 2356.22901
1010.1327 2348.91776
1010.3006 2336.15891
1010.4685 2326.84065
1010.6364 2316.39601
1010.8043 2320.30763
1010.9722 2300.23754
1011.1401 2297.28847
1011.3079 2298.78348
1011.4758 2316.19122
1011.6436 2301.22057
1011.8114 2319.83660
1011.9792 2302.16263
1012.1470 2332.86168
1012.3147 2320.65579
1012.4825 2332.30873
1012.6502 2322.66280
1012.8179 2318.56686
1012.9856 2290.81688
1013.1533 2313.03735
1013.3210 2273.59347
1013.4886 2274.33074
1013.6563 2259.48296
1013.8239 2261.67429
1013.9915 2259.97447
1014.1591 2251.61876
1014.3267 2245.94589
1014.4942 2251.14773
1014.6618 2248.32153
1014.8293 2248.62873
1014.9969 2252.21267
1015.1644 2258.99145
1015.3319 2254.46544
1015.4993 2240.94885
1015.6668 2227.53465
1015.8342 2233.65808
1016.0017 2223.93023
1016.1691 2235.48077
1016.3365 2230.89332
1016.5039 2221.43170
1016.6712 2222.04609
1016.8386 2209.02101
1017.0059 2200.93154
1017.1733 2209.77876
1017.3406 2196.34409
1017.5079 2196.26217
1017.6752 2179.12067
1017.8424 2187.61974
1018.0097 2167.01717
1018.1769 2182.09022
1018.3441 2166.30038
1018.5113 2171.01071
1018.6785 2164.17050
1018.8457 2175.92584
1019.0129 2187.53782
1019.1800 2182.06974
1019.3471 2178.50628
1019.5142 2168.61459
1019.6813 2185.18266
1019.8484 2166.27990
1020.0155 2162.59356
1020.1826 2146.06645
1020.3496 2140.18878
1020.5166 2130.15374
1020.6836 2126.52883
1020.8506 2129.88750
1021.0176 2120.85596
1021.1846 2124.89046
1021.3515 2108.85486
1021.5185 2117.80448
1021.6854 2105.68051
1021.8523 2124.33750
1022.0192 2124.05079
1022.1861 2109.94028
1022.3529 2105.00468
1022.5198 2112.29545
1022.6866 2091.87720
1022.8534 2104.96372
1023.0202 2090.36170
1023.1870 2083.80820
1023.3538 2084.97555
1023.5205 2093.39270
1023.6873 2083.25525
1023.8540 2087.22831
1024.0207 2076.92703
1024.1874 2084.81171
1024.3541 2071.15176
1024.5207 2082.47702
1024.6874 2065.94992
1024.8540 2086.77776
1025.0206 2058.18811
1025.1872 2063.38995
1025.3538 2046.88333
1025.5204 2072.91301
1025.6870 2057.32797
1025.8535 2045.08111
1026.0201 2053.51875
1026.1866 2043.21746
1026.3531 2047.57964
1026.5196 2040.92374
1026.6860 2035.82430
1026.8525 2045.57263
1027.0189 2014.40254
1027.1853 2032.17891
1027.3518 2020.87412
1027.5181 2033.77633
1027.6845 2021.03796
1027.8509 2008.19720
1028.0172 1999.10422
1028.1836 1993.08319
1028.3499 1991.36289
1028.5162 1993.30846
1028.6825 1991.64961
1028.8488 1989.25349
1029.0150 1978.23541
1029.1813 1976.82232
1029.3475 1974.85627
1029.5137 1974.28283
1029.6799 1972.43966
1029.8461 1971.31328
1030.0123 1964.10443
1030.1784 1974.09852
1030.3446 1965.10793
1030.5107 1972.72638
1030.6768 1950.93599
1030.8429 1956.07639
1031.0090 1941.96589
1031.1750 1953.86459
1031.3411 1940.08176
1031.5071 1952.34909
1031.6732 1943.56330
1031.8392 1941.41294
1032.0051 1924.55815
1032.1711 1940.04080
1032.3371 1924.55815
1032.5030 1931.58269
1032.6690 1936.82549
1032.8349 1942.72364
1033.0008 1920.62605
1033.1667 1926.89284
1033.3325 1917.67698
1033.4984 1917.47218
1033.6642 1918.45521
1033.8300 1937.89043
1033.9959 1921.54764
1034.1616 1925.78693
1034.3274 1921.21996
1034.4932 1920.76941
1034.6589 1894.59637
1034.8247 1917.47218
1034.9904 1897.58640
1035.1561 1906.80226
1035.3218 1891.79065
1035.4875 1907.49857
1035.6531 1883.45542
1035.8188 1901.17035
1035.9844 1885.33955
1036.1500 1887.18272
1036.3156 1874.66963
1036.4812 1879.99435
1036.6468 1877.39343
1036.8123 1878.58125
1036.9779 1872.21207
1037.1434 1880.03531
1037.3089 1873.95285
1037.4744 1885.07332
1037.6399 1877.59823
1037.8053 1865.78145
1037.9708 1858.18349
1038.1362 1865.22850
1038.3016 1857.65101
1038.4670 1874.58772
1038.6324 1868.34141
1038.7978 1839.87465
1038.9632 1864.40931
1039.1285 1869.36540
1039.2938 1855.48017
1039.4592 1852.69493
1039.6245 1840.53000
1039.7897 1846.10047
1039.9550 1850.40120
1040.1203 1842.08645
1040.2855 1837.21229
1040.4507 1847.00158
1040.6159 1830.67927
1040.7811 1826.13278
1040.9463 1826.64477
1041.1115 1827.60731
1041.2766 1819.23112
1041.4418 1813.23057
1041.6069 1798.21896
1041.7720 1808.19257
1041.9371 1800.22597
1042.1021 1804.73150
1042.2672 1798.15752
1042.4323 1809.38039
1042.5973 1804.99774
1042.7623 1799.01767
1042.9273 1797.23594
1043.0923 1806.02172
1043.2572 1801.06564
1043.4222 1794.63502
1043.5871 1775.34315
1043.7521 1791.93170
1043.9170 1809.70807
1044.0819 1784.45661
1044.2467 1790.19092
1044.4116 1790.25236
1044.5765 1777.78023
1044.7413 1777.96455
1044.9061 1778.78374
1045.0709 1780.64739
1045.2357 1770.85810
1045.4005 1769.38356
1045.5652 1761.02785
1045.7300 1759.90147
1045.8947 1751.13616
1046.0594 1759.96290
1046.2241 1750.27601
1046.3888 1746.85590
1046.5535 1749.10867
1046.7181 1762.15423
1046.8828 1743.94779
1047.0474 1746.52823
1047.2120 1735.16200
1047.3766 1743.53820
1047.5412 1732.41773
1047.7057 1733.99466
1047.8703 1734.19946
1048.0348 1730.14448
1048.1993 1729.87824
1048.3639 1736.12455
1048.5283 1714.39560
1048.6928 1719.94560
1048.8573 1715.48102
1049.0217 1720.55999
1049.1861 1700.05982
1049.3506 1720.82622
1049.5150 1706.57236
1049.6793 1713.94505
1049.8437 1710.46350
1050.0081 1717.09892
1050.1724 1701.43196
1050.3367 1711.44653
1050.5010 1694.01831
1050.6653 1695.18565
1050.8296 1693.01481
1050.9939 1702.68122
1051.1581 1695.45189
1051.3224 1695.69765
1051.4866 1687.48529
1051.6508 1690.78252
1051.8150 1687.38289
1051.9791 1679.55965
1052.1433 1667.64047
1052.3074 1680.46076
1052.4716 1665.18291
1052.6357 1668.07055
1052.7998 1672.84231
1052.9639 1670.38475
1053.1279 1662.88919
1053.2920 1655.96705
1053.4560 1658.17886
1053.6201 1673.23143
1053.7841 1654.32868
1053.9481 1643.53588
1054.1120 1651.03145
1054.2760 1655.41410
1054.4399 1656.17185
1054.6039 1654.02148
1054.7678 1640.13625
1054.9317 1644.21171
1055.0956 1651.31816
1055.2595 1652.34215
1055.4233 1636.92094
1055.5872 1636.16319
1055.7510 1633.99235
1055.9148 1634.40194
1056.0786 1623.28147
1056.2424 1648.63532
1056.4062 1619.14457
1056.5699 1643.53588
1056.7336 1618.75546
1056.8974 1626.41486
1057.0611 1614.35233
1057.2248 1616.85085
1057.3885 1618.89882
1057.5521 1617.95675
1057.7158 1611.68997
1057.8794 1616.27742
1058.0430 1608.37226
1058.2066 1613.73794
1058.3702 1596.16636
1058.5338 1611.75141
1058.6973 1595.63389
1058.8609 1603.66193
1059.0244 1598.58297
1059.1879 1609.08905
1059.3514 1582.62929
1059.5149 1606.73388
1059.6784 1590.61637
1059.8418 1589.94054
1060.0053 1581.48243
1060.1687 1586.84811
1060.3321 1569.46085
1060.4955 1571.67266
1060.6589 1569.58373
1060.8222 1575.76860
1060.9856 1574.17118
1061.1489 1569.13318
1061.3122 1557.33688
1061.4755 1563.64462
1061.6388 1559.11861
1061.8021 1581.11379
1061.9654 1568.08871
1062.1286 1563.27599
1062.2918 1555.57562
1062.4550 1563.00975
1062.6182 1556.78392
1062.7814 1554.71548
1062.9446 1555.12507
1063.1077 1553.56861
1063.2709 1546.01161
1063.4340 1552.13504
1063.5971 1538.88468
1063.7602 1541.56752
1063.9233 1536.93911
1064.0863 1533.96955
1064.2494 1532.22878
1064.4124 1536.42712
1064.5754 1533.06845
1064.7384 1539.10995
1064.9014 1522.74668
1065.0644 1539.78578
1065.2274 1518.13875
1065.3903 1531.34815
1065.5532 1527.53893
1065.7162 1524.46698
1065.8790 1522.45997
1066.0419 1517.40149
1066.2048 1512.28156
1066.3677 1516.95093
1066.5305 1511.79005
1066.6933 1508.22659
1066.8561 1502.08268
1067.0189 1504.43784
1067.1817 1488.77088
1067.3445 1504.39688
1067.5072 1487.70594
1067.6699 1495.81590
1067.8327 1493.62457
1067.9954 1490.61405
1068.1580 1477.54801
1068.3207 1486.27236
1068.4834 1482.05355
1068.6460 1488.40225
1068.8086 1481.80779
1068.9713 1482.09450
1069.1339 1470.64636
1069.2964 1482.23786
1069.4590 1467.43105
1069.6216 1480.37421
1069.7841 1470.07293
1069.9466 1467.94304
1070.1091 1462.43400
1070.2716 1462.37257
1070.4341 1468.10688
1070.5966 1471.64986
1070.7590 1455.12276
1070.9214 1467.02145
1071.0839 1452.91095
1071.2463 1459.44397
1071.4086 1456.08530
1071.5710 1442.13863
1071.7334 1445.00579
1071.8957 1452.19416
1072.0580 1446.86944
1072.2204 1445.19011
1072.3827 1427.98717
1072.5449 1442.81446
1072.7072 1425.03810
1072.8695 1433.84436
1073.0317 1422.47813
1073.1939 1433.43477
1073.3561 1424.09603
1073.5183 1435.68753
1073.6805 1419.73386
1073.8427 1423.68644
1074.0048 1416.04751
1074.1669 1424.95618
1074.3291 1410.49752
1074.4912 1425.59105
1074.6532 1405.50047
1074.8153 1419.40618
1074.9774 1406.74973
1075.1394 1410.06744
1075.3014 1403.47298
1075.4635 1417.56301
1075.6255 1399.31561
1075.7874 1416.33423
1075.9494 1389.85399
1076.1114 1408.53147
1076.2733 1389.56728
1076.4352 1403.69826
1076.5971 1384.32448
1076.7590 1384.87743
1076.9209 1379.90086
1077.0828 1389.54680
1077.2446 1386.65916
1077.4064 1392.47539
1077.5683 1372.73297
1077.7301 1378.67208
1077.8918 1371.87283
1078.0536 1372.71249
1078.2154 1375.04718
1078.3771 1378.09865
1078.5388 1366.83482
1078.7006 1368.55512
1078.8623 1359.74885
1079.0239 1366.63003
1079.1856 1361.40771
1079.3473 1366.38427
1079.5089 1362.02210
1079.6705 1360.67044
1079.8321 1351.65938
1079.9937 1369.96822
1080.1553 1342.11584
1080.3169 1353.09295
1080.4784 1337.13928
1080.6399 1356.84074
1080.8014 1338.47046
1080.9629 1350.06196
1081.1244 1348.64886
1081.2859 1341.17378
1081.4474 1327.98486
1081.6088 1346.25274
1081.7702 1336.11529
1081.9316 1328.82452
1082.0930 1335.43946
1082.2544 1331.13873
1082.4158 1331.73264
1082.5771 1331.79408
1082.7385 1332.59279
1082.8998 1331.54832
1083.0611 1318.85092
1083.2224 1326.26456
1083.3837 1321.86143
1083.5449 1324.01180
1083.7062 1315.61512
1083.8674 1313.52620
1084.0286 1307.19797
1084.1898 1308.73395
1084.3510 1301.89373
1084.5122 1309.53266
1084.6734 1298.10499
1084.8345 1306.66550
1084.9956 1297.96163
1085.1567 1307.97620
1085.3178 1298.53507
1085.4789 1291.10094
1085.6400 1292.04300
1085.8010 1300.09152
1085.9621 1287.98803
1086.1231 1289.25777
1086.2841 1276.45796
1086.4451 1294.82824
1086.6061 1276.06885
1086.7670 1290.46607
1086.9280 1280.36958
1087.0889 1286.71829
1087.2498 1280.36958
1087.4107 1274.57383
1087.5716 1277.89154
1087.7325 1275.12678
1087.8933 1272.75114
1088.0542 1291.81773
1088.2150 1264.76406
1088.3758 1270.98989
1088.5366 1275.20870
1088.6974 1279.03840
1088.8582 1261.67163
1089.0189 1268.57328
1089.1796 1265.27605
1089.3404 1276.41700
1089.5011 1252.66057
1089.6618 1270.04782
1089.8224 1256.59267
1089.9831 1268.20465
1090.1438 1262.20410
1090.3044 1272.89450
1090.4650 1260.85244
1090.6256 1265.23509
1090.7862 1257.65761
1090.9468 1263.69912
1091.1073 1253.76647
1091.2679 1265.25557
1091.4284 1269.82254
1091.5889 1263.96535
1091.7494 1262.18362
1091.9099 1263.84248
1092.0703 1259.80798
1092.2308 1271.74763
1092.3912 1264.82550
1092.5516 1261.61019
1092.7121 1247.43825
1092.8724 1264.25207
1093.0328 1255.32293
1093.1932 1266.79155
1093.3535 1251.86186
1093.5139 1267.67218
1093.6742 1263.06425
1093.8345 1254.33990
1093.9948 1251.98474
1094.1550 1263.49432
1094.3153 1250.85835
1094.4755 1261.15964
1094.6358 1250.32588
1094.7960 1258.59967
1094.9562 1252.53769
1095.1163 1259.02975
1095.2765 1250.73547
1095.4367 1257.90337
1095.5968 1255.36388
1095.7569 1260.89340
1095.9170 1250.05965
1096.0771 1261.89690
1096.2372 1244.44821
1096.3973 1268.06129
1096.5573 1248.35983
1096.7173 1262.04026
1096.8773 1253.72551
1097.0374 1259.88990
1097.1973 1254.42182
1097.3573 1251.22699
1097.5173 1249.85485
1097.6772 1257.71905
1097.8371 1243.69046
1097.9970 1250.69452
1098.1569 1248.97422
1098.3168 1251.49322
1098.4767 1245.96371
1098.6365 1261.91738
1098.7964 1249.38382
1098.9562 1248.91278
1099.1160 1246.02515
1099.2758 1255.83492
1099.4356 1243.75190
1099.5953 1261.18012
1099.7551 1259.07071
1099.9148 1266.83251
1100.0745 1251.34987
1100.2342 1251.88234
1100.3939 1250.08013
1100.5536 1257.78049
1100.7132 1254.93381
1100.8729 1247.60208
1101.0325 1249.24046
1101.1921 1256.18307
1101.3517 1243.52662
1101.5113 1264.02679
1101.6709 1250.83787
1101.8304 1252.41481
1101.9899 1244.24341
1102.1495 1258.47680
1102.3090 1243.62902
1102.4685 1257.08418
1102.6279 1248.48271
1102.7874 1253.09064
1102.9468 1242.11353
1103.1063 1255.07717
1103.2657 1243.13751
1103.4251 1258.14912
1103.5845 1242.62552
1103.7438 1248.85134
1103.9032 1239.43069
1104.0625 1249.50669
1104.2219 1243.95670
1104.3812 1247.31537
1104.5405 1251.43178
1104.6997 1264.78454
1104.8590 1254.85189
1105.0183 1254.36038
1105.1775 1241.06906
1105.3367 1256.14211
1105.4959 1249.05614
1105.6551 1262.98233
1105.8143 1237.62848
1105.9735 1258.45632
1106.1326 1245.63603
1106.2917 1259.78750
1106.4508 1247.47920
1106.6099 1251.69802
1106.7690 1247.99120
1106.9281 1251.73898
1107.0872 1237.03456
1107.2462 1255.75300
1107.4052 1246.16850
1107.5642 1248.68751
1107.7232 1250.61260
1107.8822 1255.97827
1108.0412 1250.46924
1108.2001 1254.40134
1108.3591 1240.70043
1108.5180 1252.31241
1108.6769 1248.52367
1108.8358 1247.99120
1108.9947 1247.02865
1109.1535 1253.54119
1109.3124 1252.33289
1109.4712 1250.96075
1109.6300 1252.00522
1109.7888 1259.23455
1109.9476 1254.42182
1110.1064 1261.40539
1110.2651 1254.50374
1110.4239 1255.34340
1110.5826 1247.29489
1110.7413 1254.58566
1110.9000 1243.81334
1111.0587 1252.49673
1111.2173 1248.72847
1111.3760 1253.11112
1111.5346 1249.42477
1111.6932 1255.32292
1111.8518 1239.79932
1112.0104 1247.15153
1112.1690 1244.03862
1112.3276 1253.74599
1112.4861 1245.36980
1112.6446 1253.31592
1112.8032 1249.07662
1112.9617 1250.63308
1113.1201 1254.03270
1113.2786 1245.14452
1113.4371 1246.18898
1113.5955 1260.64764
1113.7539 1248.85134
1113.9123 1251.34987
1114.0707 1249.85485
1114.2291 1256.14211
1114.3875 1247.33585
1114.5458 1256.79746
1114.7042 1252.18953
1114.8625 1245.08308
1115.0208 1257.71905
1115.1791 1259.45982
1115.3374 1245.49267
1115.4956 1248.85134
1115.6539 1244.53013
1115.8121 1251.24747
1115.9703 1248.29839
1116.1285 1263.12569
1116.2867 1253.23400
1116.4449 1252.10761
1116.6030 1250.38732
1116.7612 1256.89986
1116.9193 1240.70043
1117.0774 1258.88639
1117.2355 1243.52662
1117.3936 1252.41481
1117.5516 1245.36980
1117.7097 1253.88935
1117.8677 1244.79637
1118.0257 1255.69156
1118.1837 1249.77293
1118.3417 1260.72956
1118.4997 1254.03270
1118.6577 1255.15909
1118.8156 1245.41076
1118.9735 1249.19950
1119.1315 1239.69692
1119.2894 1255.77348
1119.4472 1249.52717
1119.6051 1251.94378
1119.7630 1251.47274
1119.9208 1255.63012
1120.0786 1243.77238
1120.2364 1245.88179
1120.3942 1246.35282
1120.5520 1256.40835
1120.7098 1250.85835
1120.8675 1253.35688
1121.0253 1250.24396
1121.1830 1256.75650
1121.3407 1255.67108
1121.4984 1248.89230
1121.6560 1251.98474
