# Averages = 100
# wavelength [µm]	intensity
446.8250 14.33578
447.0374 36746.70328
447.2498 1231.17737
447.4621 1214.50691
447.6745 1229.25228
447.8868 1240.78235
448.0992 1241.00762
448.3115 1231.32073
448.5238 1246.68050
448.7360 1233.02055
448.9483 1244.46869
449.1606 1239.77884
449.3728 1267.07827
449.5850 1235.70338
449.7972 1244.91924
450.0094 1237.13696
450.2216 1256.89986
450.4337 1246.47570
450.6459 1748.84243
450.8580 2130.07182
451.0701 2169.82289
451.2822 2188.95092
451.4943 2173.52971
451.7064 2151.71885
451.9184 2167.09909
452.1305 2261.77669
452.3425 2363.68361
452.5545 2262.90307
452.7665 2265.85215
452.9785 2363.54025
453.1905 2399.76882
453.4024 2353.91480
453.6143 2479.33241
453.8263 2460.73685
454.0382 2673.62320
454.2501 2458.07449
454.4619 2422.25552
454.6738 2564.32311
454.8856 2710.11801
455.0975 2494.28258
455.3093 2486.95085
455.5211 2563.68824
455.7329 2526.68145
455.9446 2577.06148
456.1564 2596.35334
456.3681 2704.28130
456.5798 2801.45741
456.7916 2720.48073
457.0033 2697.50252
457.2149 2678.98888
457.4266 2716.85582
457.6382 2760.00652
457.8499 2729.57371
458.0615 2854.09021
458.2731 2746.18274
458.4847 2872.91104
458.6963 2966.13458
458.9078 2995.15430
459.1194 3164.91043
459.3309 3182.54344
459.5424 3018.74690
459.7539 2920.28056
459.9654 2934.37058
460.1769 2979.44638
460.3883 2970.94731
460.5998 2828.83875
460.8112 2806.82309
461.0226 2878.01048
461.2340 2961.46521
461.4454 2933.87907
461.6567 2903.07762
461.8681 2918.82650
462.0794 2865.29260
462.2907 3006.45908
462.5020 3263.97067
462.7133 3358.99643
462.9246 3120.18279
463.1359 2985.24213
463.3471 2841.80240
463.5583 2907.07116
463.7696 3326.29036
463.9808 3165.25858
464.1919 3077.29832
464.4031 3079.71493
464.6143 3092.57617
464.8254 3011.37421
465.0365 2975.49380
465.2476 3255.45113
465.4587 3419.22719
465.6698 2986.34803
465.8809 3061.11937
466.0919 3054.07436
466.3030 3108.52985
466.5140 3138.36875
466.7250 3066.75128
466.9360 3200.19693
467.1469 3130.05400
467.3579 2918.33499
467.5688 2913.68610
467.7798 3152.11062
467.9907 3285.10571
468.2016 3163.21061
468.4125 3117.95050
468.6233 2965.70451
468.8342 2988.08880
469.0450 3175.08883
469.2559 3289.83652
469.4667 3233.23066
469.6775 2983.56279
469.8882 3143.03812
470.0990 3105.72413
470.3098 3405.71059
470.5205 3222.27403
470.7312 3301.16179
470.9419 3526.31547
471.1526 3410.66668
471.3633 3120.71526
471.5739 3154.24051
471.7846 3151.04568
471.9952 3065.19483
472.2058 3200.23789
472.4164 3170.37850
472.6270 3138.71691
472.8376 3277.83542
473.0481 3468.76755
473.2587 3552.42707
473.4692 3470.30353
473.6797 3337.61563
473.8902 3092.69905
474.1007 3072.77231
474.3111 3093.00624
474.5216 3022.92475
474.7320 3144.61506
474.9424 3310.66436
475.1528 3369.70730
475.3632 3230.97790
475.5736 3195.01557
475.7840 3207.67201
475.9943 3242.81516
476.2046 3273.51421
476.4149 3337.92283
476.6252 3362.29365
476.8355 3470.36497
477.0458 3555.17135
477.2561 3565.59551
477.4663 3368.99051
477.6765 3391.66153
477.8867 3415.41796
478.0969 3398.13311
478.3071 3385.10803
478.5173 3484.02492
478.7274 3460.18656
478.9375 3527.38042
479.1477 3484.90554
479.3578 3621.11595
479.5679 3586.64863
479.7779 3622.97960
479.9880 3619.35469
480.1980 3668.09635
480.4081 3671.22974
480.6181 3532.76657
480.8281 3662.52587
481.0381 3584.78498
481.2480 3584.23203
481.4580 3672.06941
481.6679 3629.38974
481.8778 3587.81597
482.0877 3612.10488
482.2976 3498.48358
482.5075 3605.71522
482.7174 3676.65686
482.9272 3751.26436
483.1371 3607.66079
483.3469 3650.31998
483.5567 3791.11783
483.7665 3661.33805
483.9762 3727.46696
484.1860 3877.84931
484.3957 3875.82182
484.6055 3712.14816
484.8152 3793.32964
485.0249 3915.85961
485.2346 3901.27807
485.4442 3899.49634
485.6539 3944.65405
485.8635 3917.72326
486.0732 3798.90011
486.2828 3834.35045
486.4924 3819.70748
486.7019 3954.93485
486.9115 3900.56128
487.1210 3918.17381
487.3306 4034.58036
487.5401 4008.53019
487.7496 4089.05632
487.9591 4100.09488
488.1686 4061.90026
488.3780 4000.85031
488.5875 4101.63085
488.7969 4208.14571
489.0063 4188.69000
489.2157 4244.59955
489.4251 4164.50349
489.6345 4143.79853
489.8438 4248.98220
490.0531 4069.25247
490.2625 4144.98635
490.4718 4242.30583
490.6811 4296.22884
490.8903 4317.77347
491.0996 4347.65334
491.3089 4373.58062
491.5181 4411.30421
491.7273 4415.23631
491.9365 4399.11879
492.1457 4486.42370
492.3549 4511.61372
492.5640 4421.60549
492.7732 4484.70341
492.9823 4541.12495
493.1914 4662.09846
493.4005 4640.43095
493.6096 4594.92509
493.8187 4562.97677
494.0277 4658.35068
494.2368 4659.55898
494.4458 4696.38146
494.6548 4764.86553
494.8638 4824.62526
495.0728 4793.10702
495.2817 4794.95019
495.4907 4842.38115
495.6996 4862.84036
495.9085 4875.82448
496.1174 4962.74027
496.3263 4951.18973
496.5352 4962.31020
496.7440 5064.77008
496.9529 5097.66045
497.1617 5035.56604
497.3705 5074.94848
497.5793 5195.67624
497.7881 5099.99514
497.9969 5190.76111
498.2056 5249.59926
498.4144 5284.43520
498.6231 5347.92224
498.8318 5344.68645
499.0405 5373.33753
499.2492 5355.72500
499.4578 5415.48473
499.6665 5407.88676
499.8751 5553.39494
500.0837 5540.49274
500.2923 5574.34566
500.5009 5575.12389
500.7095 5693.37360
500.9180 5666.27898
501.1266 5740.31305
501.3351 5752.12983
501.5436 5841.31887
501.7521 5828.39618
501.9606 5905.35885
502.1691 5944.96657
502.3775 5908.02121
502.5860 5992.68424
502.7944 5994.15878
503.0028 6096.88489
503.2112 6095.81994
503.4196 6147.12156
503.6279 6208.47870
503.8363 6146.22045
504.0446 6319.25333
504.2529 6274.01370
504.4612 6353.43393
504.6695 6439.83773
504.8778 6439.79677
505.0860 6480.28512
505.2943 6487.71924
505.5025 6579.40680
505.7107 6601.95494
505.9189 6654.19862
506.1271 6725.91849
506.3353 6709.51426
506.5434 6697.92276
506.7516 6819.67450
506.9597 6859.87613
507.1678 6933.66444
507.3759 6908.08531
507.5840 6970.56884
507.7920 7037.53741
508.0001 7045.56545
508.2081 7178.33527
508.4161 7155.99193
508.6241 7341.84509
508.8321 7297.77280
509.0401 7264.82099
509.2480 7403.22271
509.4560 7398.43047
509.6639 7505.45731
509.8718 7499.08813
510.0797 7626.12363
510.2876 7655.65534
510.4955 7771.67277
510.7033 7812.83694
510.9112 7830.30612
511.1190 7939.23757
511.3268 7902.94757
511.5346 7987.89731
511.7424 8020.37810
511.9501 8137.74719
512.1579 8164.96469
512.3656 8199.47296
512.5733 8181.40988
512.7810 8321.04039
512.9887 8393.16985
513.1964 8425.26152
513.4040 8476.50170
513.6117 8557.41694
513.8193 8661.84287
514.0269 8667.63862
514.2345 8778.61805
514.4421 8729.38488
514.6497 8741.42693
514.8572 8940.20278
515.0647 8981.18264
515.2723 9045.36598
515.4798 9115.95946
515.6873 9180.77767
515.8947 9260.85325
516.1022 9245.67780
516.3097 9320.71537
516.5171 9445.84627
516.7245 9520.69952
516.9319 9593.19762
517.1393 9654.55476
517.3467 9632.31382
517.5540 9636.81935
517.7614 9910.79661
517.9687 9919.70527
518.1760 9941.65950
518.3833 10124.56359
518.5906 10125.19846
518.7978 10301.26233
519.0051 10261.44982
519.2123 10437.71849
519.4196 10251.68101
519.6268 10460.45094
519.8340 10510.27802
520.0411 10551.97467
520.2483 10791.40269
520.4554 10755.29700
520.6626 11026.03847
520.8697 10976.35475
521.0768 11221.72189
521.2839 11135.97344
521.4909 11162.71991
521.6980 11341.65094
521.9050 11559.92345
522.1121 11468.93220
522.3191 11699.82019
522.5261 11706.18937
522.7331 11750.20022
522.9400 11946.35467
523.1470 11969.25096
523.3539 12059.21823
523.5608 12101.34495
523.7677 12124.48699
523.9746 12238.16974
524.1815 12513.92873
524.3884 12442.96661
524.5952 12448.92620
524.8020 12758.21044
525.0089 12672.72823
525.2157 12790.71171
525.4225 12906.66770
525.6292 12934.23336
525.8360 13041.48548
526.0427 13148.57377
526.2494 13312.08359
526.4562 13269.73160
526.6629 13410.83664
526.8695 13433.95821
527.0762 13669.80229
527.2829 13762.22712
527.4895 13857.96966
527.6961 13977.38672
527.9027 14122.19859
528.1093 14190.31403
528.3159 14223.32729
528.5224 14192.85351
528.7290 14577.05245
528.9355 14393.14485
529.1420 14820.08490
529.3485 14717.62502
529.5550 14905.05512
529.7615 14883.16234
529.9680 15084.12951
530.1744 15094.16456
530.3808 15291.93690
530.5872 15241.02440
530.7936 15385.09900
531.0000 15460.97624
531.2064 15652.95283
531.4127 15762.41676
531.6191 15872.84324
531.8254 15971.26861
532.0317 16175.14390
532.2380 16138.42382
532.4443 16259.11062
532.6505 16097.79212
532.8568 16356.61441
533.0630 16706.42796
533.2692 16645.39849
533.4754 16808.06865
533.6816 16977.55854
533.8878 16904.30270
534.0939 17242.72953
534.3001 17284.20090
534.5062 17405.99360
534.7123 17322.47744
534.9184 17434.66516
535.1245 17567.55786
535.3306 17604.44177
535.5366 17986.98186
535.7426 17965.35531
535.9487 18064.78419
536.1547 18023.94769
536.3607 18356.12822
536.5666 18244.90304
536.7726 18374.99002
536.9785 18599.63171
537.1845 18758.61552
537.3904 18671.26965
537.5963 18804.12139
537.8022 18977.13379
538.0080 19138.57516
538.2139 19209.61920
538.4197 19357.52350
538.6256 19303.04753
538.8314 19368.41870
539.0372 19535.94254
539.2430 19934.86637
539.4487 19693.94333
539.6545 20109.00516
539.8602 19979.43017
540.0659 20209.31467
540.2716 20615.93886
540.4773 20702.32218
540.6830 20796.28299
540.8887 20927.55779
541.0943 20669.63660
541.2999 20807.64922
541.5056 20849.77593
541.7112 21143.78233
541.9167 20986.10921
542.1223 21059.09882
542.3279 21471.10917
542.5334 21579.81535
542.7389 21775.06869
542.9444 21864.48301
543.1499 22005.69045
543.3554 21905.79054
543.5609 22288.16678
543.7663 22311.69795
543.9718 22172.78422
544.1772 22362.50805
544.3826 22395.21411
544.5880 23051.42426
544.7934 22843.20728
544.9987 22920.35426
545.2041 23308.95633
545.4094 23272.58440
545.6147 23331.05391
545.8200 23646.40014
546.0253 23615.70109
546.2306 23892.46358
546.4358 23670.42281
546.6411 24022.63248
546.8463 23867.92892
547.0515 24181.69821
547.2567 24336.85232
547.4619 24422.84653
547.6670 24487.56234
547.8722 24654.90187
548.0773 24961.46231
548.2824 24989.13037
548.4876 25152.86547
548.6926 25216.12723
548.8977 25338.39096
549.1028 25451.86891
549.3078 25657.66929
549.5129 25643.72262
549.7179 25799.06105
549.9229 26024.41953
550.1279 25842.29367
550.3328 26231.20294
550.5378 25920.71040
550.7427 26267.96398
550.9476 26495.37043
551.1526 25907.50100
551.3575 26516.36211
551.5623 26633.56736
551.7672 26582.90061
551.9720 26591.25632
552.1769 26852.39282
552.3817 27079.53303
552.5865 26902.44517
552.7913 27135.31970
552.9961 27013.77276
553.2008 27216.91078
553.4056 27519.43672
553.6103 27434.26170
553.8150 27689.72532
554.0197 27793.70070
554.2244 27645.53016
554.4291 27738.18026
554.6337 28171.20277
554.8384 27927.69929
555.0430 28196.22895
555.2476 27945.12750
555.4522 27937.03803
555.6568 28317.50966
555.8613 28509.19954
556.0659 28627.49021
556.2704 28355.17181
556.4750 28713.97593
556.6795 28950.20913
556.8839 28630.45977
557.0884 29130.22558
557.2929 28990.92275
557.4973 28791.63491
557.7018 28938.49475
557.9062 29148.20675
558.1106 29178.14805
558.3150 29014.12623
558.5193 29415.01612
558.7237 29502.89445
558.9280 29278.51900
559.1323 29467.60795
559.3367 29307.08816
559.5410 29600.58256
559.7452 29358.30786
559.9495 29726.90128
560.1537 29638.32663
560.3580 29602.85581
560.5622 29807.98036
560.7664 30027.93220
560.9706 30102.60114
561.1748 30219.13057
561.3789 30226.85141
561.5831 30247.67925
561.7872 30127.93452
561.9913 30406.68354
562.1954 30312.00595
562.3995 30484.79307
562.6036 30491.61281
562.8076 30277.53863
563.0117 30545.84302
563.2157 30480.30802
563.4197 30609.55533
563.6237 30887.44421
563.8277 30582.95221
564.0316 30373.40405
564.2356 30811.34169
564.4395 30809.58044
564.6434 31011.69447
564.8473 31228.57436
565.0512 31196.99468
565.2551 31161.50339
565.4590 31209.52825
565.6628 31468.00239
565.8666 31656.92751
566.0705 31372.95616
566.2743 31397.79802
566.4780 31477.34113
566.6818 31367.87720
566.8856 31967.27669
567.0893 31502.96122
567.2930 31731.30973
567.4967 31407.52587
567.7004 31627.41628
567.9041 31769.25859
568.1078 31756.13111
568.3114 31999.94179
568.5151 31941.98428
568.7187 31633.37587
568.9223 31858.22235
569.1259 32025.41852
569.3295 32366.73300
569.5330 32319.30204
569.7366 32312.03175
569.9401 32414.61450
570.1436 32479.53511
570.3471 32594.77432
570.5506 32493.19507
570.7541 32420.49217
570.9575 32375.64166
571.1609 32084.31810
571.3644 32714.56001
571.5678 32662.64400
571.7712 33137.56795
571.9746 32922.44932
572.1779 32713.35171
572.3813 32575.23669
572.5846 32828.63187
572.7879 32681.66963
572.9912 33304.37501
573.1945 33205.45812
573.3978 32790.39629
573.6010 33102.05618
573.8043 33678.84609
574.0075 32883.88606
574.2107 33017.02451
574.4139 32957.51054
574.6171 33085.59051
574.8203 32929.47385
575.0234 33341.68900
575.2266 32819.72320
575.4297 32931.27606
575.6328 33161.85686
575.8359 33556.37756
576.0390 32886.46650
576.2420 33013.89112
576.4451 32717.79580
576.6481 33064.66027
576.8512 33549.70118
577.0542 32866.78552
577.2571 33265.29976
577.4601 33339.96870
577.6631 33210.25036
577.8660 33019.27728
578.0689 32955.25778
578.2719 33108.46632
578.4748 32973.87381
578.6776 32892.83569
578.8805 33044.61065
579.0834 32562.80552
579.2862 33093.86430
579.4890 33414.74004
579.6918 33212.54409
579.8946 32912.31187
580.0974 33320.32868
580.3002 32970.61754
580.5029 32858.12262
580.7057 33287.29495
580.9084 32804.44536
581.1111 33350.39287
581.3138 33132.01796
581.5164 32865.61818
581.7191 32722.52661
581.9217 32876.96393
582.1244 32872.97039
582.3270 32911.16501
582.5296 32879.81061
582.7322 33117.14970
582.9347 32986.03875
583.1373 32718.28731
583.3398 32943.68675
583.5424 32657.56504
583.7449 32620.45584
583.9474 32472.92017
584.1498 32444.02334
584.3523 32876.20618
584.5548 32494.79248
584.7572 32731.12807
584.9596 32911.59508
585.1620 33561.82516
585.3644 32636.26616
585.5668 32664.34381
585.7691 32897.81225
585.9715 32751.54632
586.1738 33091.75489
586.3761 33047.35493
586.5784 33212.01162
586.7807 33185.87954
586.9830 33185.81810
587.1852 33131.34213
587.3875 32785.03061
587.5897 33436.20276
587.7919 33152.68196
587.9941 32847.14550
588.1963 32981.28746
588.3984 33315.41356
588.6006 32730.28841
588.8027 33407.06016
589.0048 33050.42688
589.2069 33143.91666
589.4090 33147.50060
589.6111 33363.37699
589.8131 33293.00878
590.0152 33531.49474
590.2172 33408.82141
590.4192 33685.03096
590.6212 33371.17975
590.8232 33177.95390
591.0252 33585.84783
591.2271 33699.03907
591.4291 33660.20958
591.6310 33522.77040
591.8329 33463.07211
592.0348 33807.21277
592.2367 33854.23414
592.4385 34143.12061
592.6404 34295.34613
592.8422 34387.87335
593.0440 34518.16513
593.2458 34786.36711
593.4476 34975.00552
593.6494 34951.92491
593.8512 35118.97772
594.0529 35394.45000
594.2546 35299.40377
594.4563 35252.50528
594.6580 35005.17210
594.8597 35005.02874
595.0614 35054.15951
595.2630 35315.17313
595.4647 35253.05823
595.6663 34968.32914
595.8679 35388.55185
596.0695 35840.64095
596.2711 35559.57772
596.4727 35687.24809
596.6742 35941.27813
596.8757 36125.10381
597.0773 35989.34396
597.2788 35650.03650
597.4802 36002.61480
597.6817 36525.23594
597.8832 36298.60772
598.0846 36592.16356
598.2860 36444.36165
598.4875 36186.01040
598.6889 36753.40014
598.8902 36853.30005
599.0916 36889.69246
599.2930 36518.43668
599.4943 37033.48035
599.6956 37038.00636
599.8969 36894.54615
600.0982 36474.87639
600.2995 36602.93588
600.5008 37425.87116
600.7020 36797.96394
600.9032 37335.02326
601.1045 37151.09519
601.3057 36814.47057
601.5068 37655.55085
601.7080 37626.26490
601.9092 37297.50448
602.1103 37858.34072
602.3115 37696.89934
602.5126 37820.39186
602.7137 37651.06580
602.9147 37719.44748
603.1158 37969.85262
603.3169 38304.36783
603.5179 38150.29914
603.7189 37989.96367
603.9199 38225.31624
604.1209 38125.92832
604.3219 38031.12784
604.5229 38088.59385
604.7238 38372.68807
604.9247 38327.91947
605.1257 38586.04545
605.3266 38880.58432
605.5275 38414.54855
605.7283 38606.27939
605.9292 38819.14526
606.1300 38217.92307
606.3309 38404.10391
606.5317 38840.91517
606.7325 38993.69363
606.9332 38884.41402
607.1340 39121.34353
607.3348 39011.69528
607.5355 38483.68798
607.7362 39555.30810
607.9369 38738.66009
608.1376 39091.68894
608.3383 38854.39080
608.5390 39730.92142
608.7396 39264.33270
608.9402 39918.80208
609.1409 39920.29710
609.3415 39578.71639
609.5421 39454.44564
609.7426 39804.30015
609.9432 39221.12056
610.1437 39173.62817
610.3443 40047.43500
610.5448 39730.81903
610.7453 40121.05947
610.9457 39935.80022
611.1462 40127.94065
611.3467 39893.73494
611.5471 40307.95710
611.7475 39751.27823
611.9479 40511.72999
612.1483 39996.44057
612.3487 40605.73176
612.5491 40442.07857
612.7494 41123.17154
612.9497 40433.16991
613.1501 40771.61722
613.3504 40588.09875
613.5506 41340.95254
613.7509 40949.62667
613.9512 40799.18288
614.1514 41049.19891
614.3516 41444.57976
614.5519 41258.76755
614.7521 41453.87753
614.9522 41050.69393
615.1524 41029.04690
615.3526 41568.70714
615.5527 42117.29653
615.7528 41648.18881
615.9529 41652.36667
616.1530 42128.39652
616.3531 42100.81038
616.5532 42013.30068
616.7532 41681.87790
616.9532 42043.54918
617.1533 41716.20185
617.3533 42196.55292
617.5532 41804.28499
617.7532 42085.94213
617.9532 41265.52585
618.1531 42309.08880
618.3530 41780.32375
618.5530 42026.14144
618.7528 42148.32326
618.9527 42202.04148
619.1526 41752.26658
619.3524 41899.74081
619.5523 42226.41231
619.7521 42328.95410
619.9519 42310.70670
620.1517 42336.61350
620.3515 42720.83292
620.5512 42998.68084
620.7510 42731.87147
620.9507 42403.43873
621.1504 42485.54179
621.3501 42642.35476
621.5498 42840.84389
621.7495 42916.78257
621.9492 42557.46645
622.1488 42288.42480
622.3484 42293.09417
622.5480 42218.09755
622.7476 43011.52161
622.9472 42176.19611
623.1468 42506.14436
623.3463 43652.18767
623.5459 43323.18149
623.7454 43015.59706
623.9449 42932.40857
624.1444 42916.22962
624.3439 43391.76796
624.5433 43180.49951
624.7428 42932.55193
624.9422 43056.02397
625.1416 43156.00580
625.3410 43110.58185
625.5404 42995.81369
625.7398 43075.43871
625.9391 43275.38190
626.1385 42936.07444
626.3378 43025.16108
626.5371 43698.28745
626.7364 43019.52916
626.9357 43424.43307
627.1350 43457.05721
627.3342 43102.51286
627.5335 42981.47790
627.7327 43186.21334
627.9319 43184.71832
628.1311 44220.21228
628.3303 43400.98382
628.5294 43652.43343
628.7286 43733.53299
628.9277 44062.19101
629.1268 43710.88245
629.3259 44343.62288
629.5250 44330.65924
629.7241 44308.97125
629.9231 43482.47250
630.1222 44376.26750
630.3212 44210.11580
630.5202 43794.95157
630.7192 44416.40769
630.9182 43760.23850
631.1171 43964.11379
631.3161 43732.46805
631.5150 43711.90644
631.7140 44074.58123
631.9129 44167.72284
632.1118 44636.89200
632.3106 44480.50911
632.5095 44225.06597
632.7083 44113.36975
632.9072 44258.79601
633.1060 44436.72354
633.3048 44406.29072
633.5036 43852.60189
633.7023 44155.70127
633.9011 44628.78205
634.0998 44448.29456
634.2986 44661.57003
634.4973 44361.76788
634.6960 44535.47659
634.8947 44266.80357
635.0933 44657.06450
635.2920 44234.58902
635.4906 43832.90043
635.6892 44722.61998
635.8878 44657.90416
636.0864 44627.51231
636.2850 44393.69572
636.4836 44410.40714
636.6821 44492.03918
636.8806 44560.52325
637.0792 44536.48010
637.2777 44518.43749
637.4761 44568.20313
637.6746 44256.25653
637.8731 44685.81798
638.0715 44182.63206
638.2699 44923.30043
638.4683 44586.81917
638.6667 43847.46149
638.8651 44768.39208
639.0635 44962.49856
639.2618 44959.09893
639.4602 44853.58758
639.6585 44749.07973
639.8568 44951.70576
640.0551 45052.85494
640.2534 44938.27109
640.4516 44782.35922
640.6499 44866.83794
640.8481 45628.53895
641.0463 45384.11388
641.2445 45746.97299
641.4427 45488.64221
641.6409 45223.10258
641.8390 45517.86672
642.0372 45826.06554
642.2353 45674.27010
642.4334 45073.55990
642.6315 45407.82936
642.8296 45320.31966
643.0277 45134.42553
643.2257 45829.48565
643.4237 45830.28435
643.6218 45799.42147
643.8198 45476.92783
644.0178 45547.93090
644.2157 45500.39755
644.4137 45392.36720
644.6116 46162.56728
644.8096 46415.96246
645.0075 45250.91400
645.2054 45936.67633
645.4033 45849.90390
645.6011 45679.36954
645.7990 45695.73281
645.9968 45960.02317
646.1947 45903.88835
646.3925 45996.76373
646.5903 45872.34963
646.7881 46078.70296
646.9858 45824.36572
647.1836 45692.00550
647.3813 45526.81635
647.5790 46062.19634
647.7767 46614.77926
647.9744 45828.11351
648.1721 45751.47852
648.3698 46363.51398
648.5674 45510.47355
648.7650 45955.78388
648.9627 45589.32035
649.1603 46535.95295
649.3578 46194.96615
649.5554 46274.16110
649.7530 46774.54131
649.9505 45582.05006
650.1480 46323.23043
650.3455 46620.43166
650.5430 45902.00422
650.7405 46090.99078
650.9380 45848.98231
651.1354 46267.54616
651.3329 45881.58597
651.5303 46322.96420
651.7277 46391.32539
651.9251 46453.84988
652.1225 46287.63674
652.3198 46139.28188
652.5172 46404.33000
652.7145 46683.63197
652.9118 46437.11798
653.1091 46387.51617
653.3064 46804.46213
653.5037 46493.27328
653.7009 46127.03503
653.8982 46572.75495
654.0954 47014.93188
654.2926 47116.83880
654.4898 47018.92542
654.6870 46930.98564
654.8841 47434.47876
655.0813 46932.74689
655.2784 46970.06088
655.4755 47414.16291
655.6726 47669.54461
655.8697 47018.92542
656.0668 47393.94945
656.2639 47014.41989
656.4609 47005.83890
656.6579 47106.92663
656.8550 47317.13015
657.0520 47213.76916
657.2490 46621.94715
657.4459 47263.71912
657.6429 47462.92504
657.8398 47230.50107
658.0367 47587.83066
658.2337 47495.75398
658.4305 47855.11106
658.6274 47801.76147
658.8243 47686.07172
659.0211 47999.49285
659.2180 47801.55668
659.4148 48017.10539
659.6116 48270.15240
659.8084 48175.29049
660.0052 48541.03723
660.2019 48182.82702
660.3987 47944.87353
660.5954 48075.65681
660.7921 48034.45168
660.9888 47702.88554
661.1855 48022.77826
661.3822 48256.73821
661.5788 47628.11420
661.7755 47934.20361
661.9721 47606.05758
662.1687 48089.41916
662.3653 47968.36373
662.5619 48171.07168
662.7584 47527.82517
662.9550 47838.70683
663.1515 48283.73044
663.3480 47855.95072
663.5445 48461.04357
663.7410 47767.45800
663.9375 47928.24402
664.1340 47970.59602
664.3304 48240.10870
664.5268 47912.65898
664.7233 48349.26544
664.9197 48291.08265
665.1160 48330.69036
665.3124 48197.12184
665.5088 48279.45018
665.7051 48397.24935
665.9014 48323.97302
666.0977 48112.66361
666.2940 48066.64575
666.4903 48334.11047
666.6866 48461.02309
666.8828 48097.89775
667.0791 48144.44808
667.2753 48477.22253
667.4715 48392.66190
667.6677 48873.79119
667.8639 49125.58895
668.0600 48307.01584
668.2562 48552.11674
668.4523 48500.67177
668.6484 48576.20085
668.8445 47995.11020
669.0406 49140.04761
669.2367 48997.85714
669.4327 49193.58151
669.6287 48926.89502
669.8248 48772.19146
670.0208 49013.89274
670.2168 48804.81561
670.4128 48924.64226
670.6087 48916.10223
670.8047 48938.15885
671.0006 49668.03443
671.1965 48430.89747
671.3924 49175.90754
671.5883 48653.02016
671.7842 48795.86598
671.9801 48151.49310
672.1759 48559.36655
672.3717 48332.88169
672.5675 49034.31098
672.7633 49073.50911
672.9591 49299.19526
673.1549 49678.43812
673.3506 49003.05898
673.5464 48590.33184
673.7421 49251.47759
673.9378 49045.63625
674.1335 48767.27634
674.3292 49160.99833
674.5249 48656.76795
674.7205 47843.35572
674.9161 48232.38786
675.1118 48186.41096
675.3074 48224.70798
675.5030 48249.26312
675.6985 48734.22212
675.8941 48546.68962
676.0896 48670.46886
676.2852 48816.05895
676.4807 48566.71876
676.6762 48783.82393
676.8717 49076.94969
677.0671 48851.07922
677.2626 49503.62350
677.4580 49031.62815
677.6534 49064.98956
677.8489 48730.04427
678.0442 48766.33427
678.2396 48012.88657
678.4350 48384.65434
678.6303 48574.21433
678.8257 48384.77722
679.0210 48698.87418
679.2163 48328.97007
679.4116 48585.04808
679.6069 48263.96754
679.8021 47841.04151
679.9974 47864.24500
680.1926 48335.40069
680.3878 48153.11099
680.5830 48084.85219
680.7782 48095.39923
680.9734 47916.24292
681.1685 47867.74702
681.3636 47892.09737
681.5588 47956.85415
681.7539 47872.39591
681.9490 47871.69960
682.1441 47840.95959
682.3391 47480.33278
682.5342 48150.77631
682.7292 48187.55782
682.9242 48360.50879
683.1192 48082.78374
683.3142 48695.57695
683.5092 48596.43479
683.7041 48730.14667
683.8991 48542.61417
684.0940 48381.45951
684.2889 47849.74538
684.4838 48258.19227
684.6787 47905.92116
684.8736 47139.34598
685.0684 48006.08731
685.2633 47668.31583
685.4581 47802.53970
685.6529 48156.26486
685.8477 48401.01761
686.0425 48338.28833
686.2372 48021.95907
686.4320 47857.38430
686.6267 47940.28608
686.8214 47664.91620
687.0161 47554.28493
687.2108 47760.04435
687.4055 47513.75563
687.6002 47846.93966
687.7948 47776.03898
687.9894 48120.58925
688.1841 47672.04313
688.3787 47762.74767
688.5732 47420.26585
688.7678 47627.68413
688.9624 47343.83566
689.1569 47371.44228
689.3514 47154.39855
689.5459 46790.96602
689.7404 46987.20238
689.9349 47057.52963
690.1294 47116.38825
690.3238 47164.96607
690.5182 47391.45093
690.7127 47477.28130
690.9071 47265.29606
691.1015 46938.70648
691.2958 47185.75295
691.4902 47467.65585
691.6845 48358.89089
691.8789 47515.68072
692.0732 47421.53559
692.2675 47372.58914
692.4618 47533.27277
692.6560 47318.25653
692.8503 47860.27194
693.0445 47764.09933
693.2387 47053.26985
693.4329 47529.83218
693.6271 47463.15032
693.8213 47482.83130
694.0155 47755.82553
694.2096 47437.36639
694.4038 47077.08773
694.5979 47194.08818
694.7920 47139.42790
694.9861 46969.28265
695.1801 46887.09767
695.3742 46759.59113
695.5682 46823.32392
695.7623 46691.25042
695.9563 46426.07942
696.1503 46928.77383
696.3443 46255.15595
696.5382 46841.83756
696.7322 46637.49124
696.9261 46977.49501
697.1201 46481.00595
697.3140 46781.97543
697.5079 47065.86486
697.7017 46262.71296
697.8956 46382.29385
698.0894 46130.29130
698.2833 46593.58279
698.4771 46725.16478
698.6709 46990.70441
698.8647 46233.93900
699.0585 47083.68219
699.2522 46069.85574
699.4460 46504.12751
699.6397 46501.89523
699.8334 46273.99726
700.0271 46053.26719
700.2208 46312.10996
700.4144 46686.51961
700.6081 46482.80816
700.8017 46211.47278
700.9954 46876.42775
701.1890 46613.69384
701.3826 45919.57579
701.5761 45930.18427
701.7697 46049.72421
701.9632 45853.61072
702.1568 46118.53596
702.3503 45980.42094
702.5438 45626.12235
702.7373 45079.82669
702.9308 46019.35283
703.1242 46111.20423
703.3177 45812.69230
703.5111 46197.77187
703.7045 46244.60891
703.8979 46253.76333
704.0913 46101.84501
704.2847 46321.53062
704.4780 46502.14098
704.6713 45471.82838
704.8647 45656.35037
705.0580 45465.64352
705.2513 44876.44291
705.4445 45436.25517
705.6378 45503.08039
705.8311 44715.96408
706.0243 44801.26198
706.2175 45517.96912
706.4107 45275.30530
706.6039 45326.27925
706.7971 45338.66946
706.9902 45624.60685
707.1834 45481.39240
707.3765 44944.29211
707.5696 44953.15982
707.7627 45162.62606
707.9558 45222.57011
708.1489 44614.18003
708.3419 44129.81494
708.5349 44385.17617
708.7280 44284.62090
708.9210 45015.72526
709.1140 44810.64167
709.3069 44417.26784
709.4999 44237.16946
709.6929 44567.48634
709.8858 44228.81375
710.0787 44439.83645
710.2716 43776.39698
710.4645 44282.16334
710.6574 44286.99654
710.8502 44549.56662
711.0431 44106.22234
711.2359 43900.42196
711.4287 43864.35723
711.6215 44094.42604
711.8143 43947.52524
712.0071 43885.73803
712.1998 43760.50474
712.3925 44052.21741
712.5853 44208.60030
712.7780 44240.42573
712.9707 43984.28628
713.1633 44092.99246
713.3560 44051.23438
713.5487 43814.61207
713.7413 43946.03023
713.9339 43936.63005
714.1265 43672.52400
714.3191 43704.75903
714.5117 43217.95686
714.7042 43587.08274
714.8968 43769.86395
715.0893 44389.78410
715.2818 44263.79306
715.4743 44317.08120
715.6668 43903.16624
715.8592 44315.83194
716.0517 43903.96495
716.2441 44012.44585
716.4366 43691.32435
716.6290 43875.27291
716.8214 43737.64941
717.0137 43823.19306
717.2061 43718.56234
717.3984 43616.61445
717.5908 43270.89685
717.7831 43127.64143
717.9754 43726.71325
718.1677 42727.07923
718.3600 43412.10429
718.5522 43083.83538
718.7445 43083.36435
718.9367 42654.25346
719.1289 42888.99164
719.3211 42575.63194
719.5133 42682.02391
719.7054 42574.40316
719.8976 42973.73658
720.0897 42799.90500
720.2818 42792.10223
720.4740 42839.38983
720.6660 42961.20301
720.8581 42907.68959
721.0502 42649.05162
721.2422 42443.53795
721.4343 42609.44390
721.6263 42770.29137
721.8183 42588.77990
722.0103 43080.08760
722.2022 42771.90926
722.3942 43006.56552
722.5861 42702.60600
722.7781 43204.84986
722.9700 42619.97046
723.1619 42350.99025
723.3538 42268.17039
723.5456 42410.15606
723.7375 42224.50770
723.9293 42593.30591
724.1211 42120.18417
724.3129 42169.00774
724.5047 41669.81536
724.6965 41664.06057
724.8883 41863.71704
725.0800 41687.59173
725.2718 42062.51337
725.4635 41826.62833
725.6552 41785.56655
725.8469 41815.01634
726.0385 42127.35206
726.2302 41873.58825
726.4218 41122.61859
726.6135 41129.54072
726.8051 40965.76466
726.9967 41372.69605
727.1882 41682.43085
727.3798 41969.33079
727.5714 41723.84078
727.7629 42123.60428
727.9544 42147.50407
728.1459 41425.36981
728.3374 41274.65979
728.5289 41953.23375
728.7204 41494.16108
728.9118 41971.52212
729.1032 42314.10633
729.2946 41975.41326
729.4860 41275.23322
729.6774 41608.54013
729.8688 41568.50235
730.0602 41248.32291
730.2515 41585.60288
730.4428 41864.55671
730.6341 41533.35920
730.8254 41319.89942
731.0167 41815.83553
731.2080 41729.71845
731.3992 41581.54791
731.5905 41464.73177
731.7817 41484.43323
731.9729 40914.19681
732.1641 41243.18251
732.3553 40667.33466
732.5464 41166.89567
732.7376 41042.95260
732.9287 41072.52527
733.1198 40937.13406
733.3109 41128.41434
733.5020 40851.56993
733.6931 41420.88476
733.8841 41262.82253
734.0752 41621.60618
734.2662 41111.43668
734.4572 40936.72447
734.6482 40386.45574
734.8392 40405.89097
735.0302 40286.53535
735.2211 40147.84690
735.4120 40108.52590
735.6030 40662.74721
735.7939 40550.62092
735.9848 40622.36126
736.1756 40146.00373
736.3665 40342.24010
736.5574 39926.56388
736.7482 39969.98082
736.9390 39690.84268
737.1298 40041.06581
737.3206 40173.07788
737.5114 40457.82745
737.7021 39900.86187
737.8929 39878.27278
738.0836 39956.17751
738.2743 40236.95402
738.4650 40234.94701
738.6557 39895.20948
738.8463 39534.27547
739.0370 39440.86761
739.2276 39289.01073
739.4182 39340.18947
739.6088 39791.15219
739.7994 39452.74583
739.9900 39598.72504
740.1806 39519.12050
740.3711 39728.25907
740.5617 39992.01696
740.7522 39752.38414
740.9427 39684.22774
741.1332 39695.73732
741.3236 39170.84293
741.5141 39411.95029
741.7045 39798.42248
741.8949 39817.57098
742.0854 39546.82951
742.2758 39580.10901
742.4661 39078.74578
742.6565 38877.59429
742.8469 39139.52949
743.0372 39323.53948
743.2275 38965.08351
743.4178 39360.62820
743.6081 39322.26974
743.7984 39183.60178
743.9886 39245.94195
744.1789 38990.49880
744.3691 38736.69404
744.5593 38734.74847
744.7495 38455.58985
744.9397 38687.44039
745.1299 38371.23401
745.3200 37880.60214
745.5102 38220.15536
745.7003 38258.65717
745.8904 38370.08715
746.0805 38353.39620
746.2706 38265.10827
746.4607 38276.45402
746.6507 38313.89089
746.8408 37880.52022
747.0308 38328.73866
747.2208 37897.94843
747.4108 38039.95459
747.6007 38251.50976
747.7907 38714.73981
747.9806 38406.35668
748.1706 38439.39041
748.3605 38125.33440
748.5504 38099.61192
748.7403 38574.90450
748.9302 37992.72843
749.1200 38054.06509
749.3098 37964.20022
749.4997 37743.85927
749.6895 37864.95566
749.8793 37730.05596
750.0691 38186.44579
750.2588 37908.76171
750.4486 37703.10469
750.6383 37900.69271
750.8280 37219.33351
751.0177 37102.29210
751.2074 37204.01470
751.3971 37402.40144
751.5868 37365.55848
751.7764 37150.52176
751.9660 36825.05857
752.1557 37008.18793
752.3453 37169.30163
752.5348 37409.40549
752.7244 37718.56685
752.9140 37752.37882
753.1035 37359.29169
753.2930 37487.98605
753.4825 37204.48574
753.6720 37404.28557
753.8615 37406.76361
754.0510 37059.12091
754.2404 37014.02464
754.4299 37015.64254
754.6193 36953.50717
754.8087 36763.76286
754.9981 36843.40837
755.1875 36521.40624
755.3768 36349.80694
755.5662 36565.76524
755.7555 36509.75330
755.9448 36653.47974
756.1341 36528.32837
756.3234 36068.23171
756.5127 36076.36215
756.7019 36459.22991
756.8912 36578.38073
757.0804 36325.94810
757.2696 36397.52461
757.4588 36166.16558
757.6480 35898.92614
757.8371 35564.96387
758.0263 35646.75975
758.2154 35863.08668
758.4045 35579.07438
758.5936 35390.49742
758.7827 35767.71278
758.9718 36026.69891
759.1609 35628.12323
759.3499 35577.43600
759.5389 35010.37394
759.7280 35422.65052
759.9170 35554.41683
760.1059 35516.24270
760.2949 35435.53225
760.4839 35849.89777
760.6728 35593.34872
760.8617 35495.00526
761.0506 35082.44196
761.2395 34863.00210
761.4284 35258.95638
761.6173 35059.56615
761.8061 35090.69527
761.9950 35095.50800
762.1838 34800.08850
762.3726 35297.41724
762.5614 34845.36909
762.7502 35222.76878
762.9389 34498.01311
763.1277 34669.30522
763.3164 35068.35193
763.5051 34900.60281
763.6938 35145.15076
763.8825 34826.75306
764.0712 35524.92608
764.2598 35102.00006
764.4484 35283.45009
764.6371 35296.27037
764.8257 35003.90235
765.0143 35215.86712
765.2029 34826.97833
765.3914 34958.82656
765.5800 35213.86011
765.7685 34632.64658
765.9570 34706.43489
766.1455 34343.26860
766.3340 33937.09495
766.5225 34097.18467
766.7110 34033.41092
766.8994 33754.62094
767.0878 33586.93326
767.2762 33793.08179
767.4646 33741.59586
767.6530 33940.33074
767.8414 34071.35978
768.0298 33738.52390
768.2181 33605.07826
768.4064 33578.55706
768.5947 33620.06939
768.7830 33539.64566
768.9713 33514.45564
769.1596 33207.07601
769.3478 33139.73880
769.5360 33283.36285
769.7243 33110.16613
769.9125 32907.78586
770.1007 32670.16005
770.2888 32719.18842
770.4770 32902.78882
770.6651 32958.35021
770.8533 32580.99149
771.0414 32412.13646
771.2295 32710.52551
771.4176 32925.64415
771.6056 33040.73999
771.7937 32725.92623
771.9817 32449.53237
772.1698 32956.09744
772.3578 32918.90633
772.5458 32542.77639
772.7337 32016.30506
772.9217 32366.77395
773.1096 32139.14223
773.2976 32395.03592
773.4855 32691.21316
773.6734 32001.33441
773.8613 32035.67885
774.0492 32218.23478
774.2370 31964.61433
774.4249 32071.92789
774.6127 32345.80275
774.8005 32128.67711
774.9883 32127.10017
775.1761 32300.29689
775.3639 31774.43995
775.5516 31993.79789
775.7394 31673.55701
775.9271 31735.26231
776.1148 31694.58965
776.3025 31009.95370
776.4902 31237.68782
776.6778 31166.29563
776.8655 31584.14270
777.0531 31720.02542
777.2407 31641.26055
777.4283 31353.72573
777.6159 31550.20785
777.8035 31222.96293
777.9911 31025.31346
778.1786 31307.93315
778.3661 30830.51068
778.5536 31162.28161
778.7411 31226.58783
778.9286 31536.91654
779.1161 31264.57765
779.3036 30808.12638
779.4910 30817.50607
779.6784 30895.53368
779.8658 31160.97091
780.0532 30527.39082
780.2406 30828.27839
780.4280 30598.98781
780.6153 30847.97985
780.8026 30766.90077
780.9900 30884.96617
781.1773 30374.40756
781.3646 30846.21860
781.5518 30655.73702
781.7391 30462.32685
781.9263 30632.12394
782.1136 30448.25731
782.3008 30211.08205
782.4880 30275.73642
782.6752 30146.91919
782.8623 30030.08257
783.0495 30373.75221
783.2366 29721.51512
783.4237 29928.50332
783.6108 30246.45047
783.7979 29995.14422
783.9850 30064.14029
784.1721 30284.31741
784.3591 29781.90972
784.5462 29686.47437
784.7332 29803.76154
784.9202 30009.45952
785.1072 29471.62197
785.2941 29464.86368
785.4811 29243.60113
785.6681 29394.96650
785.8550 29478.40075
786.0419 29224.88270
786.2288 29025.65630
786.4157 28948.50931
786.6025 29072.08375
786.7894 29205.69323
786.9762 29106.79682
787.1631 28506.98773
787.3499 28822.31348
787.5367 28976.70984
787.7234 28534.98346
787.9102 28918.03554
788.0970 28994.93677
788.2837 29093.28023
788.4704 28507.13109
788.6571 28222.34055
788.8438 28181.58598
789.0305 28117.09544
789.2171 28064.72888
789.4038 27980.74168
789.5904 28205.75201
789.7770 28214.84499
789.9636 28227.97247
790.1502 28336.06426
790.3368 28247.71489
790.5233 28353.12384
790.7099 28021.92633
790.8964 27481.83601
791.0829 27386.68739
791.2694 27295.38894
791.4559 27436.67830
791.6423 27370.77467
791.8288 27504.15887
792.0152 27800.25420
792.2016 27807.83168
792.3880 28109.16980
792.5744 27497.03194
792.7608 27028.41573
792.9471 27136.73280
793.1335 27738.85609
793.3198 27354.12468
793.5061 27437.43605
793.6924 26963.92520
793.8787 26833.67438
794.0650 26777.10949
794.2512 27131.30568
794.4375 27245.47994
794.6237 27378.96654
794.8099 27323.63043
794.9961 26819.68676
795.1823 26800.27201
795.3684 26957.39218
795.5546 26544.78791
795.7407 26469.05403
795.9268 26291.88425
796.1129 26664.96272
796.2990 26763.53145
796.4851 27125.16178
796.6712 26888.99002
796.8572 26762.50747
797.0432 26431.14613
797.2292 26702.21527
797.4152 26635.73820
797.6012 26097.20434
797.7872 25919.09250
797.9731 25987.69945
798.1591 25768.83303
798.3450 25704.54729
798.5309 25973.89614
798.7168 25834.26563
798.9027 25761.78802
799.0885 26041.74535
799.2744 25869.57262
799.4602 26110.61854
799.6460 26002.79298
799.8318 26575.24121
800.0176 26073.28407
800.2034 26157.74230
800.3892 25604.01251
800.5749 25522.76959
800.7606 25422.60344
800.9463 25723.94156
801.1320 25572.76050
801.3177 25576.46733
801.5034 25542.02049
801.6890 26043.30180
801.8747 25581.60773
802.0603 25277.93492
802.2459 25208.91838
802.4315 25329.50278
802.6171 24895.23100
802.8026 25293.92956
802.9882 25215.82003
803.1737 24921.77268
803.3592 25184.01508
803.5447 25015.32389
803.7302 25364.85072
803.9157 25248.75137
804.1012 25305.48010
804.2866 24755.86673
804.4720 24889.78341
804.6574 24859.14579
804.8428 24626.00503
805.0282 24561.35066
805.2136 24344.02021
805.3989 24636.28583
805.5843 24459.85333
805.7696 24419.69266
805.9549 24296.87597
806.1402 24119.89051
806.3255 23945.87461
806.5107 24125.39955
806.6960 24378.03698
806.8812 23933.87351
807.0664 24040.16309
807.2516 23760.96351
807.4368 23661.22743
807.6220 23499.78606
807.8072 23630.83558
807.9923 23756.86757
808.1774 23620.12470
808.3625 23925.47684
808.5476 23960.94766
808.7327 24039.95829
808.9178 23651.25383
809.1028 23610.51973
809.2879 23519.54895
809.4729 23500.78956
809.6579 23299.67903
809.8429 23431.36342
810.0279 23399.35367
810.2128 23153.24926
810.3978 23239.12059
810.5827 23430.64663
810.7676 23550.67808
810.9525 23594.81181
811.1374 23310.96334
811.3223 23366.38137
811.5072 23067.25506
811.6920 23097.64691
811.8768 23158.69686
812.0616 23093.24378
812.2464 23125.72456
812.4312 22909.66386
812.6160 23042.80231
812.8007 23249.33996
812.9855 23284.15543
813.1702 23075.99988
813.3549 23052.34584
813.5396 22675.70391
813.7243 22733.88670
813.9089 22713.12030
814.0936 22744.88430
814.2782 22758.79000
814.4628 22623.23495
814.6474 22665.77126
814.8320 22640.27405
815.0166 22384.48275
815.2012 22490.23986
815.3857 22323.24849
815.5702 22247.92420
815.7547 22296.46106
815.9392 22362.42613
816.1237 22102.37506
816.3082 21985.51796
816.4926 22154.27059
816.6771 22264.28747
816.8615 21910.27559
817.0459 22154.14771
817.2303 22034.05482
817.4147 22139.38185
817.5990 22141.14311
817.7834 21839.70259
817.9677 21909.39496
818.1520 22158.83756
818.3363 22011.50669
818.5206 21805.17383
818.7049 21685.98205
818.8891 21688.64441
819.0734 21785.14470
819.2576 21891.31140
819.4418 21572.07403
819.6260 21491.87557
819.8102 21604.02234
819.9944 21571.25484
820.1785 21337.11058
820.3627 21535.45635
820.5468 21522.30839
820.7309 21259.32872
820.9150 21035.32190
821.0991 20876.09233
821.2831 21161.68157
821.4672 21031.04165
821.6512 20906.79138
821.8352 20952.70684
822.0192 21290.02777
822.2032 20975.70553
822.3872 21077.53054
822.5711 20841.39974
822.7551 20722.16700
822.9390 20822.70179
823.1229 20885.77922
823.3068 20884.22277
823.4907 20614.64864
823.6745 20662.59159
823.8584 20509.87456
824.0422 20585.13741
824.2261 20690.91500
824.4099 20718.62401
824.5937 20751.04336
824.7774 20738.61219
824.9612 20713.13546
825.1449 20392.28019
825.3287 20386.89404
825.5124 20313.72011
825.6961 20582.92560
825.8798 20478.23344
826.0634 20527.15942
826.2471 20412.94420
826.4307 20700.56093
826.6144 20544.34187
826.7980 20679.42589
826.9816 20465.14692
827.1652 20592.87873
827.3487 20536.78487
827.5323 20143.86158
827.7158 20026.41058
827.8993 20346.32378
828.0828 20089.81569
828.2663 19853.17290
828.4498 20039.92717
828.6333 20157.27578
828.8167 19909.86067
829.0001 19980.20840
829.1836 20059.11664
829.3670 20058.72752
829.5504 20291.84781
829.7337 20147.99848
829.9171 20081.89005
830.1004 20125.96234
830.2837 20057.82642
830.4671 19817.02625
830.6504 19643.17418
830.8336 19771.88902
831.0169 19582.30855
831.2002 20008.94140
831.3834 19905.43706
831.5666 19592.42552
831.7498 19644.21865
831.9330 19950.49238
832.1162 19852.92714
832.2993 19727.63242
832.4825 19797.26335
832.6656 19630.98877
832.8487 19201.93932
833.0318 19364.36372
833.2149 19274.13022
833.3980 19250.68097
833.5811 19408.45649
833.7641 19344.96945
833.9471 19176.79026
834.1301 18935.45762
834.3131 18713.13014
834.4961 19008.30387
834.6791 19083.85344
834.8620 19461.64223
835.0450 19323.07667
835.2279 19421.13341
835.4108 19343.57684
835.5937 19423.34522
835.7766 19118.89418
835.9594 19099.70472
836.1423 19186.70243
836.3251 19532.85011
836.5079 19468.42101
836.6907 18905.94639
836.8735 18875.96413
837.0563 18835.35291
837.2390 18926.87663
837.4218 18827.89830
837.6045 19114.53201
837.7872 19111.91061
837.9699 18982.06939
838.1526 18761.44172
838.3352 18689.10746
838.5179 18631.21139
838.7005 18746.75778
838.8831 18902.46485
839.0658 18920.85561
839.2483 18916.75967
839.4309 18936.95264
839.6135 18919.19675
839.7960 18449.78183
839.9786 18552.20075
840.1611 18423.13776
840.3436 18634.81581
840.5261 18401.57265
840.7085 18315.74228
840.8910 18214.51118
841.0734 18203.45215
841.2559 18142.46364
841.4383 18367.78117
841.6207 18539.50335
841.8030 18383.67340
841.9854 18346.68709
842.1678 18192.72080
842.3501 18252.95156
842.5324 18099.94781
842.7147 18313.36664
842.8970 18446.87372
843.0793 18320.14541
843.2615 18290.16315
843.4438 18323.07401
843.6260 18342.81643
843.8082 18248.42555
843.9904 18275.09010
844.1726 18050.46889
844.3548 17991.40547
844.5369 17885.23877
844.7191 17912.37435
844.9012 17859.04525
845.0833 17871.21018
845.2654 18188.23575
845.4475 18247.01245
845.6296 17929.41345
845.8116 17819.04842
845.9936 17799.36744
846.1757 17867.31904
846.3577 17878.76719
846.5397 17927.63172
846.7216 17792.40435
846.9036 17684.37399
847.0855 17482.87435
847.2675 17675.46533
847.4494 17606.98125
847.6313 17853.82293
847.8132 17874.44597
847.9950 17730.59665
848.1769 17698.95553
848.3587 17931.48190
848.5406 17624.63475
848.7224 17625.67921
848.9042 17481.15405
849.0860 17634.40356
849.2677 17428.54174
849.4495 17299.54019
849.6312 17208.32366
849.8129 17268.02195
849.9946 17445.49892
850.1763 17361.57316
850.3580 17190.62921
850.5397 17112.02817
850.7213 16813.84392
850.9029 16879.48132
851.0845 16975.53105
851.2661 16958.16427
851.4477 16955.03088
851.6293 17038.13745
851.8109 17024.12935
851.9924 17191.32552
852.1739 17256.51236
852.3554 17160.64695
852.5369 17002.52328
852.7184 16783.43158
852.8999 16727.13292
853.0813 16724.28624
853.2628 16788.30575
853.4442 16833.32010
853.6256 16818.08321
853.8070 16968.95707
853.9883 16951.26262
854.1697 16830.18671
854.3510 16639.95089
854.5324 16626.04518
854.7137 16666.71784
854.8950 16607.38819
855.0763 16610.95165
855.2575 16636.77654
855.4388 16683.96174
855.6200 16657.48150
855.8013 16639.58226
855.9825 16581.66570
856.1637 16611.48413
856.3449 16487.97113
856.5260 16542.95909
856.7072 16531.71574
856.8883 16750.88936
857.0694 16606.42564
857.2505 16577.36497
857.4316 16579.78157
857.6127 16490.92020
857.7938 16589.52990
857.9748 16561.63657
858.1558 16340.78362
858.3368 16298.96409
858.5178 16253.86782
858.6988 16407.71123
858.8798 16339.73915
859.0607 16465.30012
859.2417 16332.57126
859.4226 16273.77408
859.6035 16296.30173
859.7844 16399.15072
859.9653 16322.76149
860.1462 16159.12879
860.3270 16084.99232
860.5078 16005.10106
860.6887 16046.71578
860.8695 15960.29150
861.0503 16061.42020
861.2310 15825.43276
861.4118 15771.20255
861.5925 15706.22050
861.7733 15625.73533
861.9540 15476.29505
862.1347 15330.99166
862.3154 15238.81259
862.4960 15366.56488
862.6767 15413.27905
862.8573 15371.00897
863.0380 15353.29404
863.2186 15421.16373
863.3992 15321.63245
863.5797 15322.82027
863.7603 15327.81731
863.9409 15217.49324
864.1214 15348.52228
864.3019 15431.50597
864.4824 15420.87701
864.6629 15271.29337
864.8434 15101.35293
865.0238 15288.20960
865.2043 15363.67725
865.3847 14955.68091
865.5651 14854.57269
865.7455 15101.57820
865.9259 15083.22840
866.1063 14976.09916
866.2866 14938.02742
866.4670 14976.11964
866.6473 14881.03245
866.8276 14829.77179
867.0079 14762.14786
867.1882 14689.62929
867.3684 14603.61460
867.5487 14579.10042
867.7289 14561.16021
867.9091 14634.39557
868.0893 14425.54372
868.2695 14193.28358
868.4497 14138.45946
868.6299 14256.72966
868.8100 14276.88167
868.9901 14200.73819
869.1703 14308.78902
869.3504 14339.13992
869.5304 14288.92373
869.7105 14372.62421
869.8906 14315.11725
870.0706 14232.50219
870.2506 14373.68915
870.4306 14352.65651
870.6106 14268.07540
870.7906 14385.54689
870.9706 14248.02579
871.1505 14071.96192
871.3305 14128.28106
871.5104 13937.92236
871.6903 13890.69620
871.8702 14021.21325
872.0500 13980.02860
872.2299 13973.55702
872.4097 13830.42448
872.5896 13891.61779
872.7694 13987.54464
872.9492 13816.98981
873.1290 13496.85133
873.3087 13565.84740
873.4885 13846.80823
873.6682 13806.77044
873.8480 13696.89692
874.0277 13747.60462
874.2074 13512.86645
874.3870 13596.32117
874.5667 13710.06536
874.7463 13809.41232
874.9260 13606.60198
875.1056 13581.49388
875.2852 13475.34766
875.4648 13442.39584
875.6444 13411.73775
875.8239 13563.02120
876.0035 13366.29332
876.1830 13399.61378
876.3625 13293.01700
876.5420 13289.37162
876.7215 13293.09892
876.9010 13024.97885
877.0804 13160.71822
877.2599 13103.98949
877.4393 13277.20668
877.6187 13303.80980
877.7981 13312.75942
877.9775 13112.95959
878.1568 13358.06049
878.3362 13205.69161
878.5155 13155.14775
878.6948 12863.78323
878.8741 12913.61031
879.0534 12894.83044
879.2327 12822.82386
879.4119 12775.06523
879.5912 12651.85943
879.7704 12804.31022
879.9496 12912.44297
880.1288 12748.58499
880.3080 12505.88021
880.4872 12654.31699
880.6663 12642.31589
880.8455 12712.27450
881.0246 12781.76208
881.2037 12776.08921
881.3828 12636.78638
881.5619 12547.69973
881.7409 12531.50030
881.9200 12371.73826
882.0990 12500.47358
882.2780 12446.69392
882.4570 12424.16626
882.6360 12398.40281
882.8150 12230.53081
882.9940 12120.55489
883.1729 12145.97018
883.3518 12390.37477
883.5308 12336.16504
883.7096 12347.24455
883.8885 12185.94653
884.0674 12162.19010
884.2463 12136.16041
884.4251 12164.11519
884.6039 12008.26477
884.7827 12079.47264
884.9615 12001.15831
885.1403 12009.63690
885.3191 12074.29128
885.4978 11774.75537
885.6765 11858.66065
885.8553 11980.33047
886.0340 11933.67774
886.2127 11908.93828
886.3913 11798.83948
886.5700 11731.54323
886.7486 11657.14052
886.9273 11632.17578
887.1059 11555.39744
887.2845 11542.65907
887.4630 11609.89388
887.6416 11640.65438
887.8202 11715.30284
887.9987 11639.93759
888.1772 11672.43885
888.3557 11643.52153
888.5342 11523.69488
888.7127 11642.86618
888.8912 11621.05531
889.0696 11605.04020
889.2481 11401.67690
889.4265 11323.23970
889.6049 11265.30266
889.7833 11320.80262
889.9616 11242.89788
890.1400 11258.97444
890.3183 10919.91273
890.4967 11036.91319
890.6750 11265.32314
890.8533 11198.66176
891.0316 11119.81496
891.2098 11005.78406
891.3881 10941.70312
891.5663 10926.95775
891.7445 10916.41071
891.9227 10853.96814
892.1009 10843.87165
892.2791 11002.01580
892.4573 10997.59219
892.6354 10873.28048
892.8136 10885.73213
892.9917 10870.72052
893.1698 10718.49501
893.3479 10900.70279
893.5259 11095.83325
893.7040 10918.72491
893.8820 10820.93440
894.0601 10809.26098
894.2381 10873.85392
894.4161 10928.02269
894.5941 10894.76368
894.7720 10901.44005
894.9500 10859.86629
895.1279 10949.07581
895.3058 10812.33293
895.4838 10797.99715
895.6616 10735.77986
895.8395 10707.76365
896.0174 10637.74360
896.1952 10638.80854
896.3731 10681.16054
896.5509 10609.72739
896.7287 10623.14158
896.9065 10598.01300
897.0842 10612.47166
897.2620 10548.39072
897.4397 10471.63285
897.6175 10510.29850
897.7952 10542.59497
897.9729 10682.77843
898.1506 10638.25559
898.3282 10527.41952
898.5059 10459.61128
898.6835 10462.58083
898.8611 10578.35250
899.0388 10422.35873
899.2163 10273.38948
899.3939 10233.53601
899.5715 10309.45421
899.7490 10266.81550
899.9266 10276.60479
900.1041 10354.77576
900.2816 10380.94880
900.4591 10287.37710
900.6365 10307.22192
900.8140 10186.53512
900.9914 10253.48322
901.1689 10225.85612
901.3463 10178.36373
901.5237 10197.75799
901.7011 10142.95435
901.8784 10109.22430
902.0558 9974.81611
902.2331 10094.72468
902.4104 10182.76686
902.5878 10162.45101
902.7650 10112.33722
902.9423 10052.72085
903.1196 10111.21083
903.2968 10235.46110
903.4741 10224.60686
903.6513 10072.09463
903.8285 9992.87920
904.0057 10034.86256
904.1828 9877.80383
904.3600 9781.50834
904.5371 9804.67087
904.7143 9807.86570
904.8914 9876.75937
905.0685 9967.70966
905.2456 9958.32997
905.4226 9964.06428
905.5997 10025.21662
905.7767 10073.11861
905.9537 9883.59959
906.1307 9803.85168
906.3077 9715.50231
906.4847 9689.71838
906.6617 9670.18076
906.8386 9748.53605
907.0156 9667.74368
907.1925 9581.05316
907.3694 9614.98800
907.5463 9650.25403
907.7231 9693.32281
907.9000 9690.63997
908.0768 9601.10278
908.2537 9421.27064
908.4305 9500.99806
908.6073 9671.12283
908.7841 9627.64445
908.9608 9505.54455
909.1376 9445.14996
909.3143 9431.36713
909.4910 9373.40961
909.6677 9374.59743
909.8444 9401.69206
910.0211 9439.70236
910.1978 9369.74375
910.3744 9403.45331
910.5510 9477.22115
910.7277 9470.11470
910.9043 9351.10723
911.0808 9384.96015
911.2574 9364.56239
911.4340 9297.04086
911.6105 9163.77953
911.7870 9230.44091
911.9636 9264.94919
912.1401 9219.11565
912.3165 9290.75359
912.4930 9215.51122
912.6695 9122.20576
912.8459 9113.35854
913.0223 9110.40946
913.1987 9129.98805
913.3751 9079.50562
913.5515 9026.31987
913.7279 9058.43202
913.9042 9029.28942
914.0805 8957.67195
914.2568 8930.65925
914.4331 8913.31295
914.6094 8904.77292
914.7857 8873.66428
914.9620 8867.37701
915.1382 8811.97946
915.3144 8717.17898
915.4906 8862.27757
915.6668 8894.18492
915.8430 8774.31731
916.0192 8588.01360
916.1953 8740.75110
916.3715 8809.05086
916.5476 8729.22104
916.7237 8782.40679
916.8998 8761.39463
917.0759 8700.38564
917.2519 8636.20230
917.4280 8722.38083
917.6040 8681.91296
917.7800 8653.17996
917.9560 8619.32704
918.1320 8566.05937
918.3080 8595.05861
918.4839 8503.65776
918.6599 8425.05672
918.8358 8454.52699
919.0117 8505.39854
919.1876 8425.36392
919.3635 8409.18496
919.5394 8491.32899
919.7152 8412.40027
919.8911 8383.81063
920.0669 8377.29809
920.2427 8279.40518
920.4185 8193.14474
920.5942 8201.17278
920.7700 8160.11100
920.9458 8236.45928
921.1215 8248.05078
921.2972 8225.99416
921.4729 8258.53638
921.6486 8113.04868
921.8243 7952.42649
921.9999 8004.17866
922.1756 8016.22072
922.3512 8047.06313
922.5268 7966.96707
922.7024 8080.62934
922.8780 8112.59813
923.0535 8111.69702
923.2291 8081.79668
923.4046 8097.27932
923.5801 8227.96021
923.7557 8120.01178
923.9311 8053.55519
924.1066 8008.76611
924.2821 8113.11012
924.4575 8103.03412
924.6330 8064.98286
924.8084 7941.87945
924.9838 7841.97954
925.1592 7836.51146
925.3345 7839.89061
925.5099 7830.44948
925.6852 7835.71275
925.8606 7795.55209
926.0359 7698.78556
926.2112 7699.68667
926.3864 7681.37783
926.5617 7582.56334
926.7370 7600.72882
926.9122 7575.51833
927.0874 7538.61393
927.2626 7508.48831
927.4378 7500.95178
927.6130 7503.59366
927.7882 7487.53759
927.9633 7443.32194
928.1384 7334.51336
928.3135 7243.58355
928.4886 7204.77454
928.6637 7241.24887
928.8388 7259.72154
929.0139 7278.74717
929.1889 7238.21787
929.3639 7193.83839
929.5389 7231.27526
929.7139 7205.69613
929.8889 7242.37525
930.0639 7252.14406
930.2388 7194.90333
930.4138 7152.48990
930.5887 7147.14470
930.7636 7206.90443
930.9385 7170.79874
931.1134 7013.20755
931.2882 7022.60772
931.4631 6952.19856
931.6379 6920.20928
931.8127 6917.28069
931.9875 6925.63640
932.1623 6893.19658
932.3371 6899.23808
932.5118 6897.64067
932.6866 6869.03055
932.8613 6809.78281
933.0360 6784.08080
933.2107 6749.79780
933.3854 6695.50615
933.5600 6733.27070
933.7347 6631.19993
933.9093 6628.78333
934.0839 6642.46376
934.2586 6672.40507
934.4331 6636.62705
934.6077 6595.34000
934.7823 6541.76514
934.9568 6542.13377
935.1314 6516.39081
935.3059 6520.69154
935.4804 6437.11394
935.6549 6469.86096
935.8293 6483.41851
936.0038 6465.31447
936.1782 6480.75615
936.3526 6494.47754
936.5271 6389.39626
936.7015 6356.99740
936.8758 6394.35235
937.0502 6392.83685
937.2246 6369.85864
937.3989 6396.05216
937.5732 6335.88284
937.7475 6291.50336
937.9218 6262.50412
938.0961 6233.56632
938.2703 6235.73717
938.4446 6221.85194
938.6188 6221.97482
938.7930 6177.20622
938.9672 6120.70276
939.1414 6161.39590
939.3156 6072.61646
939.4897 6001.49050
939.6639 5972.53222
939.8380 6020.72093
940.0121 6005.85268
940.1862 6035.52774
940.3603 6040.17663
940.5344 6067.18934
940.7084 6104.83101
940.8824 6077.40870
941.0565 6033.19306
941.2305 5995.28516
941.4045 5910.13062
941.5784 5922.72562
941.7524 5943.10291
941.9263 6014.61798
942.1003 5975.41986
942.2742 5942.22229
942.4481 5841.62606
942.6220 5835.97367
942.7958 5836.46518
942.9697 5836.38326
943.1435 5866.14025
943.3174 5868.37253
943.4912 5843.38732
943.6650 5819.67184
943.8387 5776.19346
944.0125 5700.13190
944.1863 5733.06324
944.3600 5750.30714
944.5337 5694.80718
944.7074 5738.81803
944.8811 5707.17691
945.0548 5655.11755
945.2284 5583.35672
945.4021 5583.74584
945.5757 5633.45004
945.7493 5569.51245
945.9229 5449.13285
946.0965 5445.54891
946.2701 5407.35429
946.4436 5446.47049
946.6172 5456.66938
946.7907 5463.03856
946.9642 5439.28212
947.1377 5416.24247
947.3112 5428.03877
947.4847 5461.31827
947.6581 5474.38431
947.8315 5479.07415
948.0050 5377.20819
948.1784 5335.65490
948.3518 5372.51834
948.5251 5348.53663
948.6985 5384.39656
948.8718 5362.91337
949.0452 5286.56509
949.2185 5283.10402
949.3918 5251.17619
949.5651 5274.05200
949.7383 5217.77382
949.9116 5226.49817
950.0848 5234.05517
950.2581 5246.19963
950.4313 5294.83889
950.6045 5299.85641
950.7776 5279.60200
950.9508 5220.39522
951.1239 5197.86757
951.2971 5128.01135
951.4702 5146.05396
951.6433 5126.20914
951.8164 5106.11857
951.9895 5131.77961
952.1625 5086.39663
952.3356 5105.91377
952.5086 5042.54962
952.6816 5091.78278
952.8546 5045.13006
953.0276 5032.43265
953.2006 5053.40385
953.3735 5029.62693
953.5465 5030.11845
953.7194 5003.65869
953.8923 4962.67883
954.0652 4998.14965
954.2381 4910.72187
954.4109 4872.99828
954.5838 4877.21710
954.7566 4862.63556
954.9294 4807.29945
955.1022 4838.77672
955.2750 4854.99664
955.4478 4827.32858
955.6206 4840.47654
955.7933 4863.45475
955.9660 4811.74354
956.1388 4841.29573
956.3115 4802.17952
956.4841 4760.62624
956.6568 4728.90320
956.8295 4695.58275
957.0021 4696.34050
957.1747 4697.09825
957.3473 4672.52262
957.5199 4633.75457
957.6925 4666.87023
957.8651 4663.42964
958.0376 4692.06024
958.2102 4646.67726
958.3827 4693.80102
958.5552 4738.81537
958.7277 4697.73312
958.9001 4632.93539
959.0726 4570.59522
959.2450 4553.69947
959.4175 4577.21016
959.5899 4496.70450
959.7623 4499.71502
959.9347 4450.37945
960.1070 4421.78981
960.2794 4427.13501
960.4517 4411.69332
960.6241 4426.60253
960.7964 4450.07226
960.9687 4466.39457
961.1409 4427.54460
961.3132 4404.23872
961.4855 4347.63286
961.6577 4346.05592
961.8299 4365.40923
962.0021 4379.78597
962.1743 4330.79856
962.3465 4288.87664
962.5186 4301.06205
962.6908 4283.71575
962.8629 4284.10487
963.0350 4262.17112
963.2071 4246.01265
963.3792 4224.40658
963.5513 4200.40439
963.7233 4248.65453
963.8954 4244.12852
964.0674 4222.23573
964.2394 4209.84552
964.4114 4182.09555
964.5834 4183.59056
964.7553 4202.53427
964.9273 4173.12544
965.0992 4123.89227
965.2711 4174.72286
965.4430 4165.95755
965.6149 4172.67489
965.7868 4128.29541
965.9587 4099.62384
966.1305 4111.33822
966.3023 4130.13858
966.4741 4129.23747
966.6459 4081.27404
966.8177 4095.69174
966.9895 4060.28236
967.1613 4060.54860
967.3330 4052.23385
967.5047 4013.81395
967.6764 4013.42484
967.8481 3992.65844
968.0198 3967.16123
968.1915 3953.03024
968.3631 3962.16418
968.5347 3961.77507
968.7064 3942.11457
968.8780 3915.88009
969.0496 3936.01162
969.2211 3902.91645
969.3927 3918.89060
969.5642 3887.39284
969.7358 3869.32976
969.9073 3844.03734
970.0788 3907.83157
970.2503 3916.55592
970.4217 3900.33600
970.5932 3863.18585
970.7646 3855.93604
970.9360 3868.69489
971.1074 3862.46906
971.2788 3892.57420
971.4502 3879.56960
971.6216 3837.42240
971.7929 3810.98313
971.9643 3792.12134
972.1356 3823.72149
972.3069 3826.69105
972.4782 3786.63278
972.6494 3753.06657
972.8207 3750.58853
972.9919 3733.24223
973.1632 3699.81938
973.3344 3671.59838
973.5056 3644.85190
973.6768 3647.06371
973.8479 3709.30148
974.0191 3700.10610
974.1902 3672.19229
974.3614 3654.31352
974.5325 3677.86516
974.7036 3673.42107
974.8746 3646.83843
975.0457 3609.62684
975.2167 3592.58774
975.3878 3577.00270
975.5588 3577.98572
975.7298 3575.22097
975.9008 3556.76877
976.0718 3564.91968
976.2427 3546.28317
976.4137 3531.04628
976.5846 3518.75847
976.7555 3491.52048
976.9264 3485.06938
977.0973 3495.00203
977.2682 3522.54721
977.4390 3511.07858
977.6098 3518.18504
977.7807 3528.13816
977.9515 3533.52432
978.1223 3524.86141
978.2930 3495.67786
978.4638 3485.11034
978.6346 3433.76776
978.8053 3430.67533
978.9760 3406.22258
979.1467 3387.93422
979.3174 3397.68255
979.4881 3390.80138
979.6587 3400.22204
979.8294 3384.61651
980.0000 3366.55343
980.1706 3354.36802
980.3412 3327.27339
980.5118 3314.20735
980.6824 3298.99094
980.8529 3335.15807
981.0235 3346.83149
981.1940 3344.02577
981.3645 3296.96345
981.5350 3308.37064
981.7055 3275.95129
981.8759 3297.94648
982.0464 3284.47084
982.2168 3255.88120
982.3872 3279.76051
982.5576 3269.74595
982.7280 3271.58912
982.8984 3264.46219
983.0687 3269.39779
983.2391 3254.59098
983.4094 3229.36000
983.5797 3217.70706
983.7500 3217.27699
983.9203 3195.19988
984.0906 3208.34784
984.2608 3174.26964
984.4311 3193.21335
984.6013 3185.18532
984.7715 3195.85523
984.9417 3204.16999
985.1119 3179.79916
985.2820 3123.21378
985.4522 3119.09737
985.6223 3141.97318
985.7924 3122.29220
985.9625 3150.00121
986.1326 3162.22759
986.3027 3134.88720
986.4727 3143.38627
986.6428 3129.64440
986.8128 3111.00789
986.9828 3084.85533
987.1528 3088.48023
987.3228 3096.18060
987.4928 3105.06878
987.6627 3094.95181
987.8327 3076.78633
988.0026 3062.22527
988.1725 3050.03986
988.3424 3021.81885
988.5123 3028.59763
988.6821 3020.11904
988.8520 3030.25648
989.0218 3016.82181
989.1916 3039.04227
989.3614 2993.76168
989.5312 2985.50836
989.7010 2961.93624
989.8707 2961.54713
990.0405 2964.04565
990.2102 2964.29141
990.3799 2966.93329
990.5496 2934.88258
990.7193 2932.26118
990.8890 2933.12132
991.0586 2912.72355
991.2283 2931.50343
991.3979 2920.05528
991.5675 2927.03886
991.7371 2922.63572
991.9067 2888.76232
992.0762 2861.66769
992.2458 2877.88761
992.4153 2889.04904
992.5848 2904.81840
992.7543 2905.33039
992.9238 2880.67284
993.0933 2878.01048
993.2627 2868.52839
993.4322 2852.32896
993.6016 2860.82803
993.7710 2832.25886
993.9404 2821.73230
994.1098 2823.63691
994.2792 2822.85869
994.4485 2815.89559
994.6179 2800.67918
994.7872 2812.29117
994.9565 2795.64118
995.1258 2809.73121
995.2951 2800.98638
995.4643 2794.20760
995.6336 2798.71313
995.8028 2774.97718
995.9720 2757.65136
996.1412 2765.39268
996.3104 2754.02646
996.4796 2755.82867
996.6487 2763.63143
996.8179 2777.82385
996.9870 2769.69342
997.1561 2744.91300
997.3252 2730.57721
997.4943 2715.03313
997.6634 2711.10103
997.8324 2727.89437
998.0014 2723.12261
998.1705 2696.06894
998.3395 2680.79109
998.5085 2644.54205
998.6774 2674.95438
998.8464 2659.30790
999.0153 2656.21547
999.1843 2666.35291
999.3532 2668.33944
999.5221 2647.42968
999.6910 2661.92930
999.8599 2683.49441
1000.0287 2696.74477
1000.1976 2688.61433
1000.3664 2677.14571
1000.5352 2680.75013
1000.7040 2674.36047
1000.8728 2653.81935
1001.0415 2625.96697
1001.2103 2599.85537
1001.3790 2606.77750
1001.5478 2597.43877
1001.7165 2599.69153
1001.8851 2572.76074
1002.0538 2594.12106
1002.2225 2594.38729
1002.3911 2595.86183
1002.5598 2582.95963
1002.7284 2569.62735
1002.8970 2568.97200
1003.0656 2582.20188
1003.2341 2560.30909
1003.4027 2555.04581
1003.5712 2507.20526
1003.7398 2518.77629
1003.9083 2512.28423
1004.0768 2498.95195
1004.2453 2481.99477
1004.4137 2501.86006
1004.5822 2486.29550
1004.7506 2502.18774
1004.9190 2483.32595
1005.0874 2479.41433
1005.2558 2468.70345
1005.4242 2467.37227
1005.5926 2472.24644
1005.7609 2465.54958
1005.9292 2457.15291
1006.0976 2474.39680
1006.2659 2459.73335
1006.4342 2480.21303
1006.6024 2454.49055
1006.7707 2475.42079
1006.9389 2458.93464
1007.1071 2460.40918
1007.2754 2471.44773
1007.4436 2454.49055
1007.6117 2429.58725
1007.7799 2426.82249
1007.9481 2427.82599
1008.1162 2428.56326
1008.2843 2421.45681
1008.4524 2423.83245
1008.6205 2408.94372
1008.7886 2413.20350
1008.9566 2392.49853
1009.1247 2393.44060
1009.2927 2374.08729
1009.4607 2372.38748
1009.6287 2362.63915
1009.7967 2375.13176
1009.9647 2362.22955
1010.1327 2356.94580
1010.3006 2350.00318
1010.4685 2348.81536
1010.6364 2347.44322
1010.8043 2348.09857
1010.9722 2319.57037
1011.1401 2308.85949
1011.3079 2316.68273
1011.4758 2325.81667
1011.6436 2327.45505
1011.8114 2336.13843
1011.9792 2334.76629
1012.1470 2356.10613
1012.3147 2336.85522
1012.4825 2341.42219
1012.6502 2342.63049
1012.8179 2329.42110
1012.9856 2315.76114
1013.1533 2318.44398
1013.3210 2295.71153
1013.4886 2284.38626
1013.6563 2279.04106
1013.8239 2273.34771
1013.9915 2278.73387
1014.1591 2261.96100
1014.3267 2261.51045
1014.4942 2272.69236
1014.6618 2265.60639
1014.8293 2265.01248
1014.9969 2267.06045
1015.1644 2275.70287
1015.3319 2282.87077
1015.4993 2261.51045
1015.6668 2257.27116
1015.8342 2253.50289
1016.0017 2252.37651
1016.1691 2250.18518
1016.3365 2230.52468
1016.5039 2228.98871
1016.6712 2225.52764
1016.8386 2223.72543
1017.0059 2216.35274
1017.1733 2229.25494
1017.3406 2211.60145
1017.5079 2213.60846
1017.6752 2195.52490
1017.8424 2195.27914
1018.0097 2195.27914
1018.1769 2198.55589
1018.3441 2186.18616
1018.5113 2180.92288
1018.6785 2176.76550
1018.8457 2196.24169
1019.0129 2180.82048
1019.1800 2200.97250
1019.3471 2199.90755
1019.5142 2196.42600
1019.6813 2191.38800
1019.8484 2188.39797
1020.0155 2166.66902
1020.1826 2163.37179
1020.3496 2154.46313
1020.5166 2137.85410
1020.6836 2137.40355
1020.8506 2144.18232
1021.0176 2126.34451
1021.1846 2138.57089
1021.3515 2127.24562
1021.5185 2138.16129
1021.6854 2122.82201
1021.8523 2139.61535
1022.0192 2130.07182
1022.1861 2131.34156
1022.3529 2117.72257
1022.5198 2126.59027
1022.6866 2111.47626
1022.8534 2114.75301
1023.0202 2099.18845
1023.1870 2108.83438
1023.3538 2097.07904
1023.5205 2105.66003
1023.6873 2095.01059
1023.8540 2099.94620
1024.0207 2088.90765
1024.1874 2101.64601
1024.3541 2079.30267
1024.5207 2087.65838
1024.6874 2077.47998
1024.8540 2080.94105
1025.0206 2063.08276
1025.1872 2076.90655
1025.3538 2065.23313
1025.5204 2068.77611
1025.6870 2071.13128
1025.8535 2053.88738
1026.0201 2061.32151
1026.1866 2065.17169
1026.3531 2043.07410
1026.5196 2052.33092
1026.6860 2056.95933
1026.8525 2052.74052
1027.0189 2024.31471
1027.1853 2040.28887
1027.3518 2035.51710
1027.5181 2037.76987
1027.6845 2029.86471
1027.8509 2018.96951
1028.0172 2009.42598
1028.1836 2004.61325
1028.3499 2002.95440
1028.5162 2003.09775
1028.6825 1996.58521
1028.8488 1995.39739
1029.0150 1990.05219
1029.1813 1990.19555
1029.3475 1982.94574
1029.5137 1983.99021
1029.6799 1979.50515
1029.8461 1974.52859
1030.0123 1970.88321
1030.1784 1974.77435
1030.3446 1981.40977
1030.5107 1979.73043
1030.6768 1973.46365
1030.8429 1964.08395
1031.0090 1951.61182
1031.1750 1958.67731
1031.3411 1959.63986
1031.5071 1958.94355
1031.6732 1954.74521
1031.8392 1951.44798
1032.0051 1951.05887
1032.1711 1951.44798
1032.3371 1929.26848
1032.5030 1939.24209
1032.6690 1944.11625
1032.8349 1932.66811
1033.0008 1927.48675
1033.1667 1932.46331
1033.3325 1923.24745
1033.4984 1923.18601
1033.6642 1923.39081
1033.8300 1940.88046
1033.9959 1928.20354
1034.1616 1927.05668
1034.3274 1930.70206
1034.4932 1928.55169
1034.6589 1914.46167
1034.8247 1923.22697
1034.9904 1905.63492
1035.1561 1922.91978
1035.3218 1908.07200
1035.4875 1910.40669
1035.6531 1897.95504
1035.8188 1913.35576
1035.9844 1899.49102
1036.1500 1895.04692
1036.3156 1879.89195
1036.4812 1882.45192
1036.6468 1889.59933
1036.8123 1885.48291
1036.9779 1877.04528
1037.1434 1896.54194
1037.3089 1881.63273
1037.4744 1890.86907
1037.6399 1886.79361
1037.8053 1870.63514
1037.9708 1870.08218
1038.1362 1871.29049
1038.3016 1880.01483
1038.4670 1876.10321
1038.6324 1879.81004
1038.7978 1848.86523
1038.9632 1881.18217
1039.1285 1866.10912
1039.2938 1851.91670
1039.4592 1858.06061
1039.6245 1840.71431
1039.7897 1851.97814
1039.9550 1858.42924
1040.1203 1861.46024
1040.2855 1837.35564
1040.4507 1853.51412
1040.6159 1841.57446
1040.7811 1845.85471
1040.9463 1834.79568
1041.1115 1835.08240
1041.2766 1826.19421
1041.4418 1826.43997
1041.6069 1808.47928
1041.7720 1817.32651
1041.9371 1803.21600
1042.1021 1818.69865
1042.2672 1806.84091
1042.4323 1817.06027
1042.5973 1801.86435
1042.7623 1813.70160
1042.9273 1804.36287
1043.0923 1806.63611
1043.2572 1799.81638
1043.4222 1793.32432
1043.5871 1788.53207
1043.7521 1801.18852
1043.9170 1818.12522
1044.0819 1801.08612
1044.2467 1802.54018
1044.4116 1794.47118
1044.5765 1780.64739
1044.7413 1784.86620
1044.9061 1785.29628
1045.0709 1789.24886
1045.2357 1770.16179
1045.4005 1773.11086
1045.5652 1761.49888
1045.7300 1764.98043
1045.8947 1742.47325
1046.0594 1763.36253
1046.2241 1757.19815
1046.3888 1765.43098
1046.5535 1758.11973
1046.7181 1762.05183
1046.8828 1748.14612
1047.0474 1744.52122
1047.2120 1733.95370
1047.3766 1750.23505
1047.5412 1736.73894
1047.7057 1737.39429
1047.8703 1735.01865
1048.0348 1743.04668
1048.1993 1735.46920
1048.3639 1734.01514
1048.5283 1720.47807
1048.6928 1718.59394
1048.8573 1718.51202
1049.0217 1719.33120
1049.1861 1722.58748
1049.3506 1729.63249
1049.5150 1713.39210
1049.6793 1716.19781
1049.8437 1708.74321
1050.0081 1720.58047
1050.1724 1705.56885
1050.3367 1704.21720
1050.5010 1700.87901
1050.6653 1703.64376
1050.8296 1696.18916
1050.9939 1712.85962
1051.1581 1701.18620
1051.3224 1706.63380
1051.4866 1701.16572
1051.6508 1690.16813
1051.8150 1683.98326
1051.9791 1686.89138
1052.1433 1679.15006
1052.3074 1685.62164
1052.4716 1671.20394
1052.6357 1670.71243
1052.7998 1670.50763
1052.9639 1678.47423
1053.1279 1662.25432
1053.2920 1662.07000
1053.4560 1660.90266
1053.6201 1674.23493
1053.7841 1659.94011
1053.9481 1662.97110
1054.1120 1657.58495
1054.2760 1657.42111
1054.4399 1653.61189
1054.6039 1666.41169
1054.7678 1642.02038
1054.9317 1651.21576
1055.0956 1649.39307
1055.2595 1655.27074
1055.4233 1642.73717
1055.5872 1639.91098
1055.7510 1631.51430
1055.9148 1635.87648
1056.0786 1630.96135
1056.2424 1651.27720
1056.4062 1629.54825
1056.5699 1631.32999
1056.7336 1627.54125
1056.8974 1617.93627
1057.0611 1620.20952
1057.2248 1618.75546
1057.3885 1614.80288
1057.5521 1614.51616
1057.7158 1618.93978
1057.8794 1626.64014
1058.0430 1611.30085
1058.2066 1616.25694
1058.3702 1603.68241
1058.5338 1621.27446
1058.6973 1608.45418
1058.8609 1610.37927
1059.0244 1596.39164
1059.1879 1615.90878
1059.3514 1576.95642
1059.5149 1602.04403
1059.6784 1589.05991
1059.8418 1600.89717
1060.0053 1586.39755
1060.1687 1586.19276
1060.3321 1575.58428
1060.4955 1575.23612
1060.6589 1579.14774
1060.8222 1579.51638
1060.9856 1572.06177
1061.1489 1574.56029
1061.3122 1565.99978
1061.4755 1580.15125
1061.6388 1567.41288
1061.8021 1580.47892
1061.9654 1566.08170
1062.1286 1575.91195
1062.2918 1559.32341
1062.4550 1564.03373
1062.6182 1564.77100
1062.7814 1564.36141
1062.9446 1565.18060
1063.1077 1552.58559
1063.2709 1544.55755
1063.4340 1551.84832
1063.5971 1549.47268
1063.7602 1548.67397
1063.9233 1531.57343
1064.0863 1537.61494
1064.2494 1536.79575
1064.4124 1546.64648
1064.5754 1528.46052
1064.7384 1537.24630
1064.9014 1531.18432
1065.0644 1540.05202
1065.2274 1517.05333
1065.3903 1522.80812
1065.5532 1523.79115
1065.7162 1527.25222
1065.8790 1520.78063
1066.0419 1531.71679
1066.2048 1520.33008
1066.3677 1527.94853
1066.5305 1517.64724
1066.6933 1508.75906
1066.8561 1501.83692
1067.0189 1506.34245
1067.1817 1491.41276
1067.3445 1503.16810
1067.5072 1494.54615
1067.6699 1500.42383
1067.8327 1496.83988
1067.9954 1500.85390
1068.1580 1490.20446
1068.3207 1483.50760
1068.4834 1480.00558
1068.6460 1493.89080
1068.8086 1487.80834
1068.9713 1479.12495
1069.1339 1479.12495
1069.2964 1475.19285
1069.4590 1472.32569
1069.6216 1484.32679
1069.7841 1473.90263
1069.9466 1474.00503
1070.1091 1467.08289
1070.2716 1464.87109
1070.4341 1463.53991
1070.5966 1465.01445
1070.7590 1461.77865
1070.9214 1468.98750
1071.0839 1456.37202
1071.2463 1467.94304
1071.4086 1455.22515
1071.5710 1449.83900
1071.7334 1446.21409
1071.8957 1452.66519
1072.0580 1435.60561
1072.2204 1449.24509
1072.3827 1432.88182
1072.5449 1436.85487
1072.7072 1433.20949
1072.8695 1431.65303
1073.0317 1432.69750
1073.1939 1432.84086
1073.3561 1429.68698
1073.5183 1440.11115
1073.6805 1420.00009
1073.8427 1429.46171
1074.0048 1412.11541
1074.1669 1426.43071
1074.3291 1424.48514
1074.4912 1421.53607
1074.6532 1411.00951
1074.8153 1407.34365
1074.9774 1408.38811
1075.1394 1415.06449
1075.3014 1400.62631
1075.4635 1410.74327
1075.6255 1396.98092
1075.7874 1409.18682
1075.9494 1385.38942
1076.1114 1401.69125
1076.2733 1403.49346
1076.4352 1398.27114
1076.5971 1388.09274
1076.7590 1400.58535
1076.9209 1373.53168
1077.0828 1399.68424
1077.2446 1382.66562
1077.4064 1385.00031
1077.5683 1383.28001
1077.7301 1380.10566
1077.8918 1375.49773
1078.0536 1375.19054
1078.2154 1370.07061
1078.3771 1376.52172
1078.5388 1367.51065
1078.7006 1377.01323
1078.8623 1362.45217
1079.0239 1361.53058
1079.1856 1356.39018
1079.3473 1364.78685
1079.5089 1362.28833
1079.6705 1357.14793
1079.8321 1359.48262
1079.9937 1362.94368
1080.1553 1355.24332
1080.3169 1348.46454
1080.4784 1349.32469
1080.6399 1351.12690
1080.8014 1344.90108
1080.9629 1352.45808
1081.1244 1354.71085
1081.2859 1342.62783
1081.4474 1334.14924
1081.6088 1336.54537
1081.7702 1334.16972
1081.9316 1340.62082
1082.0930 1333.49389
1082.2544 1336.15625
1082.4158 1321.63615
1082.5771 1330.36050
1082.7385 1322.08671
1082.8998 1328.59925
1083.0611 1315.53321
1083.2224 1318.99427
1083.3837 1322.90589
1083.5449 1309.53266
1083.7062 1313.40332
1083.8674 1314.01771
1084.0286 1304.14650
1084.1898 1315.43081
1084.3510 1300.09152
1084.5122 1310.92528
1084.6734 1301.23838
1084.8345 1307.83284
1084.9956 1293.78378
1085.1567 1300.82879
1085.3178 1294.41865
1085.4789 1299.51809
1085.6400 1285.57142
1085.8010 1295.77031
1085.9621 1293.06699
1086.1231 1294.29577
1086.2841 1269.39247
1086.4451 1295.15592
1086.6061 1282.41755
1086.7670 1289.23729
1086.9280 1279.98047
1087.0889 1281.00445
1087.2498 1278.62881
1087.4107 1279.55040
1087.5716 1280.22623
1087.7325 1270.39598
1087.8933 1271.11276
1088.0542 1291.73581
1088.2150 1265.23509
1088.3758 1261.38491
1088.5366 1271.33804
1088.6974 1270.51885
1088.8582 1262.04026
1089.0189 1271.95243
1089.1796 1259.50078
1089.3404 1273.89800
1089.5011 1264.31351
1089.6618 1269.06480
1089.8224 1256.18307
1089.9831 1270.15022
1090.1438 1260.52477
1090.3044 1276.13029
1090.4650 1265.97236
1090.6256 1268.77808
1090.7862 1269.57679
1090.9468 1256.16259
1091.1073 1256.75650
1091.2679 1257.22754
1091.4284 1272.95594
1091.5889 1270.58029
1091.7494 1258.74303
1091.9099 1262.16314
1092.0703 1251.96426
1092.2308 1266.97587
1092.3912 1260.72956
1092.5516 1271.05132
1092.7121 1250.46924
1092.8724 1264.49783
1093.0328 1243.73142
1093.1932 1261.63067
1093.3535 1253.68455
1093.5139 1259.91038
1093.6742 1256.06019
1093.8345 1256.26499
1093.9948 1256.98178
1094.1550 1259.23455
1094.3153 1251.02219
1094.4755 1254.19654
1094.6358 1254.56518
1094.7960 1256.92034
1094.9562 1250.03917
1095.1163 1262.20410
1095.2765 1242.27736
1095.4367 1258.23104
1095.5968 1254.17606
1095.7569 1270.90797
1095.9170 1253.47975
1096.0771 1261.42587
1096.2372 1250.16204
1096.3973 1263.59672
1096.5573 1250.18252
1096.7173 1258.68159
1096.8773 1251.65706
1097.0374 1257.78049
1097.1973 1250.63308
1097.3573 1258.45632
1097.5173 1251.22699
1097.6772 1257.71905
1097.8371 1242.78936
1097.9970 1258.96831
1098.1569 1247.09009
1098.3168 1255.28197
1098.4767 1251.88234
1098.6365 1257.18658
1098.7964 1247.74544
1098.9562 1256.75650
1099.1160 1237.91519
1099.2758 1261.65115
1099.4356 1246.55762
1099.5953 1253.00872
1099.7551 1249.79341
1099.9148 1258.62015
1100.0745 1257.04322
1100.2342 1252.10761
1100.3939 1248.27791
1100.5536 1258.02624
1100.7132 1246.22994
1100.8729 1245.65651
1101.0325 1254.95429
1101.1921 1256.49027
1101.3517 1243.03511
1101.5113 1255.67108
1101.6709 1250.87883
1101.8304 1250.40780
1101.9899 1248.76942
1102.1495 1253.80743
1102.3090 1246.80337
1102.4685 1259.43934
1102.6279 1244.85780
1102.7874 1250.14156
1102.9468 1243.38327
1103.1063 1251.26795
1103.2657 1245.49267
1103.4251 1253.00872
1103.5845 1249.58861
1103.7438 1254.64710
1103.9032 1248.56463
1104.0625 1250.18252
1104.2219 1250.48972
1104.3812 1250.94027
1104.5405 1244.40725
1104.6997 1254.25798
1104.8590 1250.24396
1105.0183 1257.43233
1105.1775 1246.22994
1105.3367 1259.93085
1105.4959 1253.19304
1105.6551 1258.72255
1105.8143 1238.57054
1105.9735 1254.54470
1106.1326 1242.93271
1106.2917 1264.53878
1106.4508 1245.53363
1106.6099 1256.32643
1106.7690 1243.77238
1106.9281 1253.56167
1107.0872 1251.41130
1107.2462 1258.47680
1107.4052 1254.21702
1107.5642 1252.55817
1107.7232 1258.00576
1107.8822 1241.41722
1108.0412 1247.64304
1108.2001 1249.52717
1108.3591 1255.56868
1108.5180 1253.72551
1108.6769 1235.82626
1108.8358 1258.08768
1108.9947 1244.98068
1109.1535 1256.85890
1109.3124 1244.05910
1109.4712 1260.89340
1109.6300 1255.91684
1109.7888 1250.59212
1109.9476 1250.38732
1110.1064 1264.02679
1110.2651 1255.56868
1110.4239 1249.89581
1110.5826 1239.49213
1110.7413 1258.29248
1110.9000 1250.53068
1111.0587 1260.58620
1111.2173 1249.03566
1111.3760 1254.42182
1111.5346 1253.21352
1111.6932 1252.51721
1111.8518 1247.72496
1112.0104 1252.90632
1112.1690 1248.58511
1112.3276 1259.70558
1112.4861 1245.61555
1112.6446 1249.42477
1112.8032 1255.67108
1112.9617 1254.15558
1113.1201 1247.09009
1113.2786 1256.44931
1113.4371 1247.37681
1113.5955 1256.12163
1113.7539 1242.80984
1113.9123 1252.61961
1114.0707 1247.17201
1114.2291 1257.94432
1114.3875 1242.70744
1114.5458 1251.86186
1114.7042 1250.36684
1114.8625 1242.95319
1115.0208 1249.69101
1115.1791 1251.65706
1115.3374 1243.66998
1115.4956 1253.45927
1115.6539 1254.50374
1115.8121 1259.33694
1115.9703 1240.88475
1116.1285 1252.29193
1116.2867 1253.33640
1116.4449 1245.77939
1116.6030 1257.76001
1116.7612 1257.82145
1116.9193 1248.44175
1117.0774 1255.05669
1117.2355 1242.25688
1117.3936 1249.15854
1117.5516 1248.97422
1117.7097 1254.25798
1117.8677 1241.84729
1118.0257 1254.42182
1118.1837 1253.02920
1118.3417 1260.42237
1118.4997 1248.27791
1118.6577 1249.28142
1118.8156 1249.71149
1118.9735 1247.15153
1119.1315 1246.70098
1119.2894 1252.37385
1119.4472 1250.59212
1119.6051 1254.48326
1119.7630 1247.27441
1119.9208 1259.25502
1120.0786 1244.34581
1120.2364 1259.84894
1120.3942 1252.31241
1120.5520 1255.79396
1120.7098 1256.57219
1120.8675 1253.41831
1121.0253 1259.68510
1121.1830 1253.64359
1121.3407 1252.64009
1121.4984 1257.35041
1121.6560 1249.91629
