# Averages = 100
# wavelength [µm]	intensity
446.8250 14.33578
447.0374 36746.70328
447.2498 1233.88069
447.4621 1220.42554
447.6745 1232.69287
447.8868 1241.99065
448.0992 1224.33716
448.3115 1236.01058
448.5238 1245.98419
448.7360 1232.20136
448.9483 1242.44120
449.1606 1238.93918
449.3728 1270.10926
449.5850 1227.47055
449.7972 1252.86536
450.0094 1232.97959
450.2216 1245.10356
450.4337 1251.37035
450.6459 1722.62843
450.8580 2075.02242
451.0701 2108.03567
451.2822 2139.65631
451.4943 2122.39193
451.7064 2109.55117
451.9184 2113.38087
452.1305 2200.41954
452.3425 2293.82740
452.5545 2199.57988
452.7665 2198.18726
452.9785 2296.05968
453.1905 2332.16537
453.4024 2290.67353
453.6143 2407.91974
453.8263 2387.31717
454.0382 2584.70040
454.2501 2381.99245
454.4619 2357.58067
454.6738 2487.21709
454.8856 2610.50481
455.0975 2418.34390
455.3093 2422.95183
455.5211 2478.45178
455.7329 2453.26177
455.9446 2508.94604
456.1564 2524.49012
456.3681 2604.23802
456.5798 2717.12206
456.7916 2640.36419
457.0033 2618.14373
457.2149 2599.69153
457.4266 2625.65978
457.6382 2659.94277
457.8499 2645.81179
458.0615 2754.31317
458.2731 2653.30735
458.4847 2774.19895
458.6963 2863.87950
458.9078 2905.41231
459.1194 3056.88008
459.3309 3079.10054
459.5424 2909.05769
459.7539 2824.16939
459.9654 2849.76900
460.1769 2886.77579
460.3883 2867.66824
460.5998 2743.00838
460.8112 2731.45784
461.0226 2773.60504
461.2340 2866.58282
461.4454 2842.13007
461.6567 2807.45796
461.8681 2828.81827
462.0794 2785.33990
462.2907 2911.82245
462.5020 3156.96431
462.7133 3246.70630
462.9246 3026.05815
463.1359 2878.50200
463.3471 2768.19840
463.5583 2832.68894
463.7696 3217.33843
463.9808 3041.74559
464.1919 2984.87349
464.4031 2972.44232
464.6143 3006.04949
464.8254 2918.23259
465.0365 2877.72377
465.2476 3152.56117
465.4587 3312.32322
465.6698 2889.99110
465.8809 2965.84786
466.0919 2958.94621
466.3030 3017.86627
466.5140 3037.38341
466.7250 2962.44824
466.9360 3089.85237
467.1469 3021.83933
467.3579 2830.62049
467.5688 2824.64042
467.7798 3059.09188
467.9907 3163.88644
468.2016 3077.23688
468.4125 3015.79782
468.6233 2862.20017
468.8342 2905.14607
469.0450 3064.86715
469.2559 3174.29012
469.4667 3108.89848
469.6775 2871.08835
469.8882 3042.50333
470.0990 3010.47310
470.3098 3274.88635
470.5205 3112.95346
470.7312 3174.16725
470.9419 3397.66208
471.1526 3295.22268
471.3633 3025.15704
471.5739 3053.80812
471.7846 3036.25703
471.9952 2975.80099
472.2058 3076.80681
472.4164 3049.26163
472.6270 3040.23009
472.8376 3161.63368
473.0481 3353.22115
473.2587 3421.33659
473.4692 3332.72099
473.6797 3219.22256
473.8902 2983.11224
474.1007 2974.75653
474.3111 2998.84064
474.5216 2925.48240
474.7320 3037.87493
474.9424 3211.56315
475.1528 3269.00868
475.3632 3138.45067
475.5736 3077.29832
475.7840 3085.63356
475.9943 3128.02651
476.2046 3149.59162
476.4149 3219.20208
476.6252 3246.48102
476.8355 3347.81452
477.0458 3416.58531
477.2561 3413.24712
477.4663 3255.08249
477.6765 3267.08359
477.8867 3294.99740
478.0969 3275.33690
478.3071 3264.11403
478.5173 3368.62188
478.7274 3335.83390
478.9375 3389.63404
479.1477 3365.30417
479.3578 3485.47898
479.5679 3457.19653
479.7779 3485.17178
479.9880 3483.16477
480.1980 3525.37341
480.4081 3531.51731
480.6181 3403.66262
480.8281 3523.01824
481.0381 3445.56406
481.2480 3449.33233
481.4580 3530.71860
481.6679 3489.49299
481.8778 3449.90576
482.0877 3461.23103
482.2976 3374.02852
482.5075 3457.64708
482.7174 3550.17431
482.9272 3586.40288
483.1371 3462.02973
483.3469 3512.02065
483.5567 3638.38032
483.7665 3527.89241
483.9762 3581.77447
484.1860 3695.35481
484.3957 3712.59871
484.6055 3566.39422
484.8152 3640.53069
485.0249 3758.30937
485.2346 3742.72433
485.4442 3725.43947
485.6539 3774.71360
485.8635 3749.76934
486.0732 3642.72202
486.2828 3659.72016
486.4924 3669.05889
486.7019 3776.59773
486.9115 3726.77065
487.1210 3739.18134
487.3306 3867.32275
487.5401 3847.74417
487.7496 3880.20447
487.9591 3931.93616
488.1686 3874.96167
488.3780 3824.80692
488.5875 3933.59502
488.7969 4018.19661
489.0063 3993.35475
489.2157 4040.56043
489.4251 3983.89313
489.6345 3949.03670
489.8438 4066.50819
490.0531 3894.80649
490.2625 3971.42100
490.4718 4056.71890
490.6811 4113.87771
490.8903 4132.49374
491.0996 4164.58541
491.3089 4162.37361
491.5181 4219.57337
491.7273 4230.63240
491.9365 4212.18021
492.1457 4281.97498
492.3549 4293.48457
492.5640 4217.97596
492.7732 4282.36410
492.9823 4328.44339
493.1914 4453.22613
493.4005 4444.23555
493.6096 4392.03282
493.8187 4361.06753
494.0277 4446.83647
494.2368 4446.07872
494.4458 4484.15046
494.6548 4548.70243
494.8638 4603.28080
495.0728 4579.03285
495.2817 4591.03395
495.4907 4603.71087
495.6996 4628.10218
495.9085 4652.26821
496.1174 4707.44049
496.3263 4708.97647
496.5352 4732.50763
496.7440 4817.12970
496.9529 4848.85273
497.1617 4820.54980
497.3705 4836.97451
497.5793 4947.79010
497.7881 4839.67783
497.9969 4943.36649
498.2056 4991.41184
498.4144 5020.45203
498.6231 5072.98243
498.8318 5074.70273
499.0405 5093.40068
499.2492 5061.63668
499.4578 5165.67350
499.6665 5138.64031
499.8751 5254.00239
500.0837 5264.54943
500.2923 5279.41768
500.5009 5311.57079
500.7095 5408.89027
500.9180 5370.12222
501.1266 5443.82861
501.3351 5446.51145
501.5436 5538.11709
501.7521 5523.92467
501.9606 5596.01317
502.1691 5648.05206
502.3775 5598.36833
502.5860 5670.29300
502.7944 5691.32564
503.0028 5773.73590
503.2112 5769.80380
503.4196 5819.44656
503.6279 5870.07235
503.8363 5818.38162
504.0446 5979.37244
504.2529 5927.04684
504.4612 6010.68588
504.6695 6091.96976
504.8778 6090.76146
505.0860 6098.11367
505.2943 6106.91993
505.5025 6194.28628
505.7107 6231.98939
505.9189 6292.22015
506.1271 6327.87528
506.3353 6323.92270
506.5434 6307.27272
506.7516 6423.14679
506.9597 6465.13015
507.1678 6525.36091
507.3759 6520.58914
507.5840 6581.33190
507.7920 6637.89679
508.0001 6630.21691
508.2081 6753.79134
508.4161 6738.67733
508.6241 6923.36316
508.8321 6898.64417
509.0401 6858.01247
509.2480 6975.25868
509.4560 6971.36754
509.6639 7055.51858
509.8718 7076.96081
510.0797 7192.63009
510.2876 7211.30756
510.4955 7314.17703
510.7033 7332.71115
510.9112 7371.43824
511.1190 7493.41526
511.3268 7437.52619
511.5346 7519.64974
511.7424 7551.55709
511.9501 7665.46511
512.1579 7717.93407
512.3656 7757.45987
512.5733 7722.31672
512.7810 7858.62953
512.9887 7908.78428
513.1964 7958.40656
513.4040 7983.82185
513.6117 8039.62900
513.8193 8137.41951
514.0269 8139.63132
514.2345 8269.92309
514.4421 8217.00358
514.6497 8238.50725
514.8572 8392.55546
515.0647 8442.75117
515.2723 8499.41847
515.4798 8567.32911
515.6873 8660.57313
515.8947 8710.21589
516.1022 8704.19486
516.3097 8783.71749
516.5171 8885.93161
516.7245 8927.97641
516.9319 9005.06195
517.1393 9032.73001
517.3467 9069.79824
517.5540 9085.93624
517.7614 9281.64013
517.9687 9326.98216
518.1760 9345.47532
518.3833 9493.15434
518.5906 9495.57095
518.7978 9661.68169
519.0051 9622.09446
519.2123 9782.81904
519.4196 9600.95942
519.6268 9774.95484
519.8340 9843.80755
520.0411 9882.06361
520.2483 10094.35605
520.4554 10056.14095
520.6626 10320.22652
520.8697 10241.03157
521.0768 10462.76515
521.2839 10438.12808
521.4909 10459.20168
521.6980 10599.71282
521.9050 10777.29219
522.1121 10683.41330
522.3191 10920.71144
522.5261 10901.00998
522.7331 10920.67048
522.9400 11135.62528
523.1470 11174.65957
523.3539 11298.86887
523.5608 11295.96075
523.7677 11297.76297
523.9746 11439.95344
524.1815 11713.09103
524.3884 11635.47301
524.5952 11646.69588
524.8020 11931.17922
525.0089 11858.18962
525.2157 11969.59912
525.4225 12037.59168
525.6292 12060.34461
525.8360 12174.84654
526.0427 12260.08300
526.2494 12422.40501
526.4562 12420.60279
526.6629 12516.77541
526.8695 12521.54717
527.0762 12794.95100
527.2829 12842.42292
527.4895 12988.11541
527.6961 13117.05553
527.9027 13228.36263
528.1093 13307.33230
528.3159 13332.23560
528.5224 13274.01185
528.7290 13624.76746
528.9355 13468.77368
529.1420 13844.30971
529.3485 13742.87382
529.5550 13965.69282
529.7615 13894.54638
529.9680 14045.87079
530.1744 14062.60270
530.3808 14250.13520
530.5872 14203.74870
530.7936 14362.75300
531.0000 14413.76790
531.2064 14584.91665
531.4127 14692.94700
531.6191 14812.05686
531.8254 14907.75844
532.0317 15073.56199
532.2380 15021.09303
532.4443 15179.46246
532.6505 15027.05262
532.8568 15305.57637
533.0630 15607.30361
533.2692 15541.95293
533.4754 15681.91111
533.6816 15888.42828
533.8878 15794.97946
534.0939 16083.57922
534.3001 16120.01258
534.5062 16207.64517
534.7123 16114.44211
534.9184 16263.65711
535.1245 16413.77322
535.3306 16409.53393
535.5366 16721.29621
535.7426 16749.21002
535.9487 16859.96417
536.1547 16852.20237
536.3607 17154.11393
536.5666 17029.12639
536.7726 17143.48497
536.9785 17365.73054
537.1845 17566.69771
537.3904 17428.93085
537.5963 17456.74227
537.8022 17728.20053
538.0080 17867.23712
538.2139 17950.69185
538.4197 18092.88232
538.6256 18026.65101
538.8314 18119.83359
539.0372 18235.48238
539.2430 18628.91766
539.4487 18420.68020
539.6545 18744.46406
539.8602 18667.33755
540.0659 18849.54533
540.2716 19260.16307
540.4773 19246.50312
540.6830 19383.02071
540.8887 19497.29737
541.0943 19277.16121
541.2999 19393.62919
541.5056 19449.31346
541.7112 19686.85736
541.9167 19582.61575
542.1223 19612.02458
542.3279 20000.01226
542.5334 20092.04797
542.7389 20281.50556
542.9444 20357.48520
543.1499 20464.14342
543.3554 20426.23552
543.5609 20737.54725
543.7663 20792.57617
543.9718 20602.85234
544.1772 20810.45493
544.3826 20835.89070
544.5880 21418.33302
544.7934 21288.53276
544.9987 21306.18625
545.2041 21721.98534
545.4094 21655.79499
545.6147 21709.32890
545.8200 21995.34821
546.0253 21911.19718
546.2306 22263.50924
546.4358 22012.34635
546.6411 22370.57705
546.8463 22210.34397
547.0515 22534.72174
547.2567 22670.13344
547.4619 22778.26619
547.6670 22841.81466
547.8722 23008.02780
548.0773 23288.35376
548.2824 23245.69457
548.4876 23383.50239
548.6926 23495.21909
548.8977 23562.65870
549.1028 23715.70340
549.3078 23870.50936
549.5129 23903.99365
549.7179 24003.01294
549.9229 24109.60971
550.1279 24059.63927
550.3328 24431.69376
550.5378 24133.98054
550.7427 24453.87326
550.9476 24658.13766
551.1526 24163.04122
551.3575 24746.44607
551.5623 24856.44247
551.7672 24759.57355
551.9720 24826.89029
552.1769 24946.57358
552.3817 25146.94684
552.5865 25015.11909
552.7913 25240.04750
552.9961 25101.60481
553.2008 25341.97491
553.4056 25615.27634
553.6103 25577.88043
553.8150 25836.12929
554.0197 25914.91464
554.2244 25807.27341
554.4291 25883.47832
554.6337 26287.31728
554.8384 26089.89309
555.0430 26321.49788
555.2476 26057.26895
555.4522 26088.82815
555.6568 26458.05644
555.8613 26596.21241
556.0659 26746.14420
556.2704 26438.10922
556.4750 26765.43607
556.6795 26974.34936
556.8839 26702.93206
557.0884 27165.03573
557.2929 27118.73115
557.4973 26892.43061
557.7018 27025.11850
557.9062 27171.28203
558.1106 27168.31248
558.3150 27022.70190
558.5193 27389.34975
558.7237 27460.35282
558.9280 27256.19082
559.1323 27442.22830
559.3367 27313.88210
559.5410 27575.79682
559.7452 27308.61882
559.9495 27665.53881
560.1537 27611.82059
560.3580 27571.35273
560.5622 27766.01216
560.7664 27990.01898
560.9706 27907.03529
561.1748 28063.99161
561.3789 28094.93642
561.5831 28117.17736
561.7872 28010.90826
561.9913 28322.07663
562.1954 28197.90829
562.3995 28346.89801
562.6036 28399.16218
562.8076 28197.92877
563.0117 28457.32449
563.2157 28352.44801
563.4197 28594.57935
563.6237 28744.42923
563.8277 28476.30916
564.0316 28253.94071
564.2356 28657.96399
564.4395 28644.77507
564.6434 28838.57435
564.8473 29009.98934
565.0512 28975.84970
565.2551 28964.44251
565.4590 29024.91903
565.6628 29176.38680
565.8666 29477.09005
566.0705 29210.56740
566.2743 29240.97973
566.4780 29331.17228
566.6818 29250.42087
566.8856 29740.33595
567.0893 29338.74976
567.2930 29522.32968
567.4967 29269.32362
567.7004 29443.93343
567.9041 29637.95799
568.1078 29639.39157
568.3114 29835.21834
568.5151 29781.80732
568.7187 29370.75951
568.9223 29633.26815
569.1259 29801.28350
569.3295 30187.46897
569.5330 30123.71570
569.7366 30199.83870
569.9401 30266.95064
570.1436 30318.12938
570.3471 30385.42563
570.5506 30404.84037
570.7541 30334.08305
570.9575 30336.84781
571.1609 30077.57497
571.3644 30621.57690
571.5678 30547.48140
571.7712 30924.98348
571.9746 30795.18322
572.1779 30587.82638
572.3813 30478.89492
572.5846 30703.72093
572.7879 30625.77524
572.9912 31202.99523
573.1945 31062.38170
573.3978 30679.12483
573.6010 31005.63248
573.8043 31560.01762
574.0075 30807.98302
574.2107 31011.71495
574.4139 30934.26077
574.6171 31076.49220
574.8203 30879.82576
575.0234 31311.16894
575.2266 30804.91107
575.4297 30922.87407
575.6328 31032.25608
575.8359 31334.96634
576.0390 30701.42721
576.2420 30828.95422
576.4451 30581.86679
576.6481 30967.80650
576.8512 31416.14782
577.0542 30798.56236
577.2571 31255.62803
577.4601 31260.62507
577.6631 31077.63907
577.8660 30975.62974
578.0689 30882.75436
578.2719 31093.49034
578.4748 30908.47685
578.6776 30839.33742
578.8805 31000.02105
579.0834 30523.33584
579.2862 30924.18477
579.4890 31298.77873
579.6918 31140.69602
579.8946 30828.44223
580.0974 31279.91694
580.3002 31003.50260
580.5029 30811.73080
580.7057 31173.29969
580.9084 30669.90897
581.1111 31231.21624
581.3138 31006.71791
581.5164 30772.51220
581.7191 30639.90622
581.9217 30788.30204
582.1244 30809.72379
582.3270 30839.29646
582.5296 30761.47365
582.7322 31033.23910
582.9347 30869.42208
583.1373 30630.42413
583.3398 30869.27873
583.5424 30660.26303
583.7449 30666.09975
583.9474 30479.12020
584.1498 30370.10682
584.3523 30754.22384
584.5548 30367.85406
584.7572 30566.83470
584.9596 30678.46948
585.1620 31196.13454
585.3644 30415.10070
585.5668 30490.26115
585.7691 30822.03209
585.9715 30630.15789
586.1738 30859.40752
586.3761 30850.56029
586.5784 31087.38740
586.7807 30976.51037
586.9830 30897.25398
587.1852 30922.32112
587.3875 30614.90053
587.5897 31168.77367
587.7919 30897.62261
587.9941 30546.53933
588.1963 30654.69256
588.3984 31073.97320
588.6006 30520.46869
588.8027 31121.67039
589.0048 30799.44299
589.2069 30905.85545
589.4090 30936.96409
589.6111 31154.64269
589.8131 31003.64595
590.0152 31173.93456
590.2172 31068.93520
590.4192 31399.14968
590.6212 31131.00913
590.8232 30895.77944
591.0252 31300.13039
591.2271 31405.39598
591.4291 31413.87457
591.6310 31257.92175
591.8329 31253.86678
592.0348 31530.30160
592.2367 31569.86835
592.4385 31867.84781
592.6404 31991.01265
592.8422 32021.60930
593.0440 32122.38984
593.2458 32398.18980
593.4476 32470.99508
593.6494 32518.38508
593.8512 32744.46035
594.0529 33053.43740
594.2546 32909.85431
594.4563 32851.46672
594.6580 32602.72043
594.8597 32527.70334
595.0614 32645.93257
595.2630 32891.38163
595.4647 32851.13904
595.6663 32569.44094
595.8679 32892.81521
596.0695 33374.37458
596.2711 33216.29187
596.4727 33237.01732
596.6742 33548.41096
596.8757 33706.43223
597.0773 33666.57876
597.2788 33359.15817
597.4802 33664.89943
597.6817 34095.87397
597.8832 33803.58787
598.0846 34147.97430
598.2860 34124.34074
598.4875 33797.34157
598.6889 34391.72354
598.8902 34416.99547
599.0916 34416.91355
599.2930 34073.94022
599.4943 34586.69016
599.6956 34663.24323
599.8969 34422.19731
600.0982 34120.98207
600.2995 34337.02229
600.5008 35053.85231
600.7020 34437.29084
600.9032 35002.40734
601.1045 34725.15333
601.3057 34441.26390
601.5068 35031.11986
601.7080 35063.31393
601.9092 34853.08994
602.1103 35455.58186
602.3115 35317.34397
602.5126 35644.05643
602.7137 35489.72150
602.9147 35498.73256
603.1158 35637.44149
603.3169 35811.00684
603.5179 35660.17394
603.7189 35546.88031
603.9199 35723.98865
604.1209 35768.36813
604.3219 35807.99633
604.5229 35853.80939
604.7238 36022.11146
604.9247 36013.32567
605.1257 36206.18289
605.3266 36400.24841
605.5275 35995.79506
605.7283 36192.35910
605.9292 36390.21336
606.1300 35826.61236
606.3309 36067.88356
606.5317 36317.14184
606.7325 36468.60960
606.9332 36518.58004
607.1340 36752.70383
607.3348 36631.50504
607.5355 36078.06196
607.7362 37014.04512
607.9369 36354.14863
608.1376 36637.87422
608.3383 36347.69753
608.5390 37159.61474
608.7396 36804.72224
608.9402 37332.11515
609.1409 37306.47458
609.3415 37010.35878
609.5421 36871.42458
609.7426 37197.85032
609.9432 36812.38164
610.1437 36764.78685
610.3443 37574.81992
610.5448 37384.97322
610.7453 37719.77515
610.9457 37428.28776
611.1462 37559.54208
611.3467 37417.24921
611.5471 37830.34499
611.7475 37313.64247
611.9479 38043.16990
612.1483 37499.72091
612.3487 38015.54280
612.5491 37883.89937
612.7494 38510.98740
612.9497 37811.81087
613.1501 38193.14265
613.3504 37984.33176
613.5506 38591.73881
613.7509 38250.26050
613.9512 38276.92505
614.1514 38428.02419
614.3516 38801.88088
614.5519 38646.95205
614.7521 38731.47172
614.9522 38416.96515
615.1524 38492.57616
615.3526 38953.24625
615.5527 39521.49614
615.7528 39063.81608
615.9529 39065.67974
616.1530 39445.86465
616.3531 39454.28181
616.5532 39409.02170
616.7532 38899.85571
616.9532 39263.34968
617.1533 39107.76549
617.3533 39428.66172
617.5532 39154.37726
617.7532 39326.03800
617.9532 38541.46118
618.1531 39475.84692
618.3530 38986.27999
618.5530 39304.32953
618.7528 39504.51848
618.9527 39575.15292
619.1526 39211.20840
619.3524 39193.67778
619.5523 39429.19419
619.7521 39598.47929
619.9519 39615.62078
620.1517 39523.81035
620.3515 39873.95156
620.5512 40177.21478
620.7510 39977.00535
620.9507 39683.77718
621.1504 39749.90610
621.3501 39804.46398
621.5498 40053.35363
621.7495 40138.91776
621.9492 39672.45192
622.1488 39500.91405
622.3484 39569.02950
622.5480 39593.64608
622.7476 40300.48201
622.9472 39608.04330
623.1468 39879.23532
623.3463 40892.18115
623.5459 40648.18615
623.7454 40409.27011
623.9449 40382.46220
624.1444 40374.45465
624.3439 40753.69750
624.5433 40543.14583
624.7428 40402.65517
624.9422 40485.22927
625.1416 40610.17585
625.3410 40584.71960
625.5404 40522.80950
625.7398 40498.17244
625.9391 40648.00183
626.1385 40153.78601
626.3378 40221.26658
626.5371 40938.03517
626.7364 40313.71189
626.9357 40739.25932
627.1350 40725.29217
627.3342 40357.35411
627.5335 40232.98096
627.7327 40430.67139
627.9319 40432.30976
628.1311 41426.41427
628.3303 40595.32807
628.5294 40809.25889
628.7286 40994.27239
628.9277 41414.57701
629.1268 41136.46286
629.3259 41817.47391
629.5250 41702.19375
629.7241 41600.22538
629.9231 40855.80922
630.1222 41633.46391
630.3212 41456.60133
630.5202 41116.94572
630.7192 41596.58000
630.9182 41147.58333
631.1171 41415.37572
631.3161 41158.47852
631.5150 40999.57663
631.7140 41270.93249
631.9129 41520.21124
632.1118 41946.80313
632.3106 41676.83989
632.5095 41422.83033
632.7083 41362.96820
632.9072 41458.46498
633.1060 41502.86495
633.3048 41584.35362
633.5036 41021.96093
633.7023 41392.58183
633.9011 41879.62976
634.0998 41718.20886
634.2986 41804.48978
634.4973 41595.37170
634.6960 41714.13340
634.8947 41583.49348
635.0933 41895.68583
635.2920 41531.88466
635.4906 41207.28162
635.6892 41936.78857
635.8878 42131.71423
636.0864 42082.46058
636.2850 41745.24205
636.4836 41821.52888
636.6821 41885.20023
636.8806 42049.75452
637.0792 41945.20572
637.2777 41953.80719
637.4761 42061.26411
637.6746 41805.96432
637.8731 42196.61436
638.0715 41637.12978
638.2699 42367.25112
638.4683 41971.64499
638.6667 41174.90323
638.8651 41941.74465
639.0635 42231.92134
639.2618 42221.39478
639.4602 42177.79353
639.6585 42073.90007
639.8568 42114.14266
640.0551 42283.85783
640.2534 42184.55183
640.4516 41901.56350
640.6499 42129.31811
640.8481 42921.61578
641.0463 42642.78483
641.2445 42918.48239
641.4427 42729.29103
641.6409 42439.42154
641.8390 42674.46691
642.0372 43018.91477
642.2353 42846.86492
642.4334 42268.80526
642.6315 42541.75853
642.8296 42506.98402
643.0277 42308.92497
643.2257 42961.10062
643.4237 43017.84983
643.6218 42920.85803
643.8198 42637.68539
644.0178 42867.85660
644.2157 42755.38215
644.4137 42682.90454
644.6116 43390.70302
644.8096 43676.92713
645.0075 42605.45036
645.2054 43307.30973
645.4033 43190.71887
645.6011 43005.88969
645.7990 43090.34792
645.9968 43249.72085
646.1947 43057.90810
646.3925 43334.32244
646.5903 43119.51100
646.7881 43300.34664
646.9858 43198.31684
647.1836 43069.47912
647.3813 42847.72507
647.5790 43250.45812
647.7767 43880.72050
647.9744 42959.38032
648.1721 42959.85135
648.3698 43762.36839
648.5674 42883.27780
648.7650 43392.79195
648.9627 43034.60221
649.1603 43706.47932
649.3578 43343.80454
649.5554 43496.62396
649.7530 43952.31749
649.9505 42891.85879
650.1480 43538.36157
650.3455 43875.70298
650.5430 43227.66423
650.7405 43399.69360
650.9380 43154.44935
651.1354 43457.07769
651.3329 43182.30172
651.5303 43692.69649
651.7277 43785.55140
651.9251 43934.09057
652.1225 43650.97937
652.3198 43559.37373
652.5172 43761.34440
652.7145 44036.28421
652.9118 43812.54362
653.1091 43821.00173
653.3064 44124.06015
653.5037 43836.40246
653.7009 43517.98428
653.8982 43841.25615
654.0954 44246.40580
654.2926 44357.32379
654.4898 44121.02916
654.6870 44120.82436
654.8841 44764.80813
655.0813 44292.75134
655.2784 44395.82560
655.4755 44742.21904
655.6726 44857.39680
655.8697 44275.93751
656.0668 44622.51526
656.2639 44292.62846
656.4609 44409.34220
656.6579 44419.78684
656.8550 44563.45185
657.0520 44335.57436
657.2490 43840.21168
657.4459 44430.06764
657.6429 44713.19932
657.8398 44419.29532
658.0367 44828.70476
658.2337 44601.48263
658.4305 44737.20151
658.6274 44891.43404
658.8243 44846.78832
659.0211 45156.62551
659.2180 45065.65474
659.4148 45210.69189
659.6116 45507.66784
659.8084 45424.52031
660.0052 45786.62166
660.2019 45470.88632
660.3987 45184.00686
660.5954 45204.77326
660.7921 45340.28735
660.9888 44928.62515
661.1855 45388.33270
661.3822 45610.27107
661.5788 45055.57874
661.7755 45350.48624
661.9721 44877.20066
662.1687 45429.29207
662.3653 45368.03733
662.5619 45553.84953
662.7584 45118.06226
662.9550 45169.44580
663.1515 45480.96233
663.3480 45253.39204
663.5445 45964.87686
663.7410 45387.49303
663.9375 45485.81601
664.1340 45600.27698
664.3304 45843.30944
664.5268 45475.63761
664.7233 45911.81399
664.9197 45766.61301
665.1160 45701.32376
665.3124 45594.99323
665.5088 45657.86587
665.7051 45662.26900
665.9014 45721.43482
666.0977 45459.80681
666.2940 45402.79136
666.4903 45727.64016
666.6866 45779.82240
666.8828 45439.45000
667.0791 45493.31158
667.2753 45697.18687
667.4715 45505.14884
667.6677 46036.96536
667.8639 46291.22068
668.0600 45520.24237
668.2562 45843.61663
668.4523 45652.21347
668.6484 45886.50110
668.8445 45443.13634
669.0406 46560.11898
669.2367 46433.20635
669.4327 46488.09192
669.6287 46276.65962
669.8248 46049.39653
670.0208 46259.02661
670.2168 46153.80198
670.4128 46171.74218
670.6087 46172.58185
670.8047 46039.56628
671.0006 46771.67415
671.1965 45691.16584
671.3924 46359.56140
671.5883 45895.57360
671.7842 46089.16808
671.9801 45471.80790
672.1759 45900.16105
672.3717 45717.03168
672.5675 46545.43504
672.7633 46308.19834
672.9591 46413.75065
673.1549 46857.66836
673.3506 46282.39394
673.5464 45940.30124
673.7421 46433.98458
673.9378 46313.89170
674.1335 46026.88935
674.3292 46283.64320
674.5249 45749.18479
674.7205 45032.76436
674.9161 45449.83320
675.1118 45394.53804
675.3074 45445.20479
675.5030 45412.51921
675.6985 45948.06304
675.8941 45755.14438
676.0896 45889.63449
676.2852 46078.84632
676.4807 45780.29344
676.6762 45999.85617
676.8717 46403.08073
677.0671 46241.59840
677.2626 46825.39237
677.4580 46356.30513
677.6534 46388.31488
677.8489 45956.43923
678.0442 46040.77458
678.2396 45280.50714
678.4350 45590.46721
678.6303 45758.40065
678.8257 45570.27424
679.0210 45953.61303
679.2163 45584.50763
679.4116 45859.22215
679.6069 45650.24742
679.8021 45195.43452
679.9974 45134.34361
680.1926 45603.24654
680.3878 45508.50750
680.5830 45440.86310
680.7782 45533.04217
680.9734 45317.88257
681.1685 45308.40048
681.3636 45298.07872
681.5588 45337.48163
681.7539 45236.37342
681.9490 45228.46826
682.1441 45157.42422
682.3391 44729.82883
682.5342 45477.82893
682.7292 45640.35573
682.9242 45692.16934
683.1192 45380.79617
683.3142 45891.04759
683.5092 45883.55202
683.7041 46126.40016
683.8991 46073.11201
684.0940 45842.40833
684.2889 45291.75049
684.4838 45723.91286
684.6787 45377.94950
684.8736 44562.61218
685.0684 45410.55316
685.2633 44980.13157
685.4581 45068.95197
685.6529 45480.55273
685.8477 45808.88308
686.0425 45720.84090
686.2372 45359.66114
686.4320 45180.01332
686.6267 45309.19919
686.8214 44989.73654
687.0161 44941.26112
687.2108 45061.19017
687.4055 44939.82754
687.6002 45268.21933
687.7948 45189.63877
687.9894 45554.70968
688.1841 45160.61905
688.3787 45280.81434
688.5732 44905.83126
688.7678 45285.15603
688.9624 45023.38467
689.1569 44952.95502
689.3514 44686.86244
689.5459 44353.57601
689.7404 44455.44197
689.9349 44580.22471
690.1294 44604.12450
690.3238 44566.81051
690.5182 44637.93647
690.7127 44843.81877
690.9071 44751.14818
691.1015 44378.39739
691.2958 44622.12615
691.4902 44888.32113
691.6845 45769.05009
691.8789 44903.74233
692.0732 44881.33755
692.2675 44681.84492
692.4618 44868.90638
692.6560 44625.77153
692.8503 45290.76747
693.0445 45195.88508
693.2387 44477.94915
693.4329 44946.54488
693.6271 44828.76620
693.8213 44931.06224
694.0155 45153.34876
694.2096 44770.19429
694.4038 44476.63845
694.5979 44647.62336
694.7920 44565.25406
694.9861 44477.41668
695.1801 44445.22261
695.3742 44329.88101
695.5682 44333.62879
695.7623 44199.17964
695.9563 43949.57321
696.1503 44265.67719
696.3443 43603.13882
696.5382 44096.57641
696.7322 44070.32145
696.9261 44492.71500
697.1201 43975.64385
697.3140 44325.33452
697.5079 44491.50670
697.7017 43782.78664
697.8956 43839.08530
698.0894 43605.53494
698.2833 44138.37545
698.4771 44174.50162
698.6709 44505.96536
698.8647 43820.81742
699.0585 44460.76669
699.2522 43516.77598
699.4460 43944.57617
699.6397 43890.44835
699.8334 43653.55981
700.0271 43606.74324
700.2208 43810.76189
700.4144 44057.19397
700.6081 43849.36610
700.8017 43632.85485
700.9954 44231.55803
701.1890 43948.69259
701.3826 43483.31217
701.5761 43575.96227
701.7697 43690.01365
701.9632 43304.99553
702.1568 43548.64237
702.3503 43438.25685
702.5438 43138.22943
702.7373 42619.90902
702.9308 43380.81133
703.1242 43548.02798
703.3177 43182.62940
703.5111 43479.33911
703.7045 43481.77619
703.8979 43633.01868
704.0913 43462.25905
704.2847 43696.42380
704.4780 43938.06363
704.6713 42923.66375
704.8647 43277.12267
705.0580 43118.60989
705.2513 42553.96443
705.4445 43113.42853
705.6378 43056.65884
705.8311 42288.34288
706.0243 42383.75775
706.2175 42949.46815
706.4107 42751.51149
706.6039 42680.97945
706.7971 42665.96784
706.9902 42858.29258
707.1834 42706.37426
707.3765 42326.35318
707.5696 42394.07951
707.7627 42570.53250
707.9558 42658.18556
708.1489 42144.39116
708.3419 41824.35508
708.5349 41950.61235
708.7280 41903.24284
708.9210 42535.69655
709.1140 42406.49020
709.3069 42169.19206
709.4999 41963.08448
709.6929 42300.09822
709.8858 41887.55540
710.0787 41932.26255
710.2716 41294.21789
710.4645 41920.28194
710.6574 41908.71091
710.8502 42231.71655
711.0431 41757.89850
711.2359 41405.54547
711.4287 41455.65927
711.6215 41717.59447
711.8143 41636.82258
712.0071 41584.18979
712.1998 41393.50342
712.3925 41719.64244
712.5853 41984.95679
712.7780 41981.92580
712.9707 41644.25671
713.1633 41646.20228
713.3560 41581.93702
713.5487 41421.37627
713.7413 41674.54617
713.9339 41465.16184
714.1265 41176.58257
714.3191 41400.75323
714.5117 40875.26492
714.7042 41227.20835
714.8968 41350.76231
715.0893 41844.56853
715.2818 41753.59776
715.4743 41867.15763
715.6668 41440.68862
715.8592 41769.03945
716.0517 41474.84873
716.2441 41659.84175
716.4366 41285.06347
716.6290 41457.19524
716.8214 41511.87601
717.0137 41504.83100
717.2061 41429.32239
717.3984 41367.51469
717.5908 41065.39834
717.7831 40818.59763
717.9754 41260.30353
718.1677 40183.76828
718.3600 40851.30369
718.5522 40550.43660
718.7445 40555.65892
718.9367 40299.45803
719.1289 40501.16247
719.3211 40340.66316
719.5133 40418.64981
719.7054 40259.39976
719.8976 40606.79670
720.0897 40591.62125
720.2818 40470.95493
720.4740 40505.09457
720.6660 40577.92034
720.8581 40447.34185
721.0502 40164.84504
721.2422 39978.29557
721.4343 40226.46842
721.6263 40350.37053
721.8183 40200.41826
722.0103 40615.43913
722.2022 40442.91824
722.3942 40642.04224
722.5861 40257.51563
722.7781 40732.19383
722.9700 40430.01604
723.1619 40211.12914
723.3538 40038.01434
723.5456 40201.76992
723.7375 39836.28942
723.9293 39992.81567
724.1211 39682.20025
724.3129 39742.69725
724.5047 39272.48362
724.6965 39315.67528
724.8883 39594.15807
725.0800 39335.39722
725.2718 39718.28546
725.4635 39422.66117
725.6552 39211.22888
725.8469 39454.85524
726.0385 39806.75771
726.2302 39468.20799
726.4218 38753.52834
726.6135 38948.82264
726.8051 38895.08394
726.9967 39297.98083
727.1882 39436.56688
727.3798 39680.41852
727.5714 39403.16451
727.7629 39698.17440
727.9544 39680.60283
728.1459 39128.34758
728.3374 38981.46726
728.5289 39770.91825
728.7204 39302.79356
728.9118 39737.06533
729.1032 39954.70297
729.2946 39569.70532
729.4860 38932.43889
729.6774 39271.02956
729.8688 39326.11992
730.0602 38989.94585
730.2515 39189.13129
730.4428 39451.66041
730.6341 39250.69323
730.8254 39041.59562
731.0167 39477.83345
731.2080 39415.12464
731.3992 39291.46829
731.5905 39157.40826
731.7817 39177.78555
731.9729 38559.13515
732.1641 38850.39726
732.3553 38341.37463
732.5464 38755.04384
732.7376 38666.59207
732.9287 38739.95031
733.1198 38729.52615
733.3109 38762.68276
733.5020 38482.21344
733.6931 39007.94750
733.8841 38901.14593
734.0752 39202.54549
734.2662 38715.12892
734.4572 38630.03582
734.6482 38235.49464
734.8392 38264.57580
735.0302 38138.89196
735.2211 37947.98031
735.4120 37736.52754
735.6030 38289.27430
735.7939 38169.93916
735.9848 38159.57644
736.1756 37784.61384
736.3665 38027.48246
736.5574 37560.91422
736.7482 37586.02231
736.9390 37391.85440
737.1298 37706.89343
737.3206 37848.59239
737.5114 38154.76372
737.7021 37577.13413
737.8929 37603.57341
738.0836 37771.07677
738.2743 38026.54039
738.4650 38036.22728
738.6557 37703.73956
738.8463 37457.75803
739.0370 37388.49573
739.2276 37095.08325
739.4182 37109.17327
739.6088 37474.26466
739.7994 37152.81548
739.9900 37327.54818
740.1806 37238.35914
740.3711 37316.98066
740.5617 37621.94369
740.7522 37376.55607
740.9427 37342.10924
741.1332 37423.82319
741.3236 37033.88994
741.5141 37200.94275
741.7045 37551.92363
741.8949 37506.39729
742.0854 37305.00004
742.2758 37493.04453
742.4661 36890.28637
742.6565 36438.46350
742.8469 36719.77249
743.0372 36981.62578
743.2275 36703.51162
743.4178 36896.51220
743.6081 36993.05344
743.7984 37021.72500
743.9886 37017.34235
744.1789 36815.71983
744.3691 36612.68421
744.5593 36625.40209
744.7495 36308.54037
744.9397 36525.91177
745.1299 36308.06933
745.3200 35821.75868
745.5102 36125.12429
745.7003 36139.86966
745.8904 36319.53796
746.0805 36386.85469
746.2706 36238.78655
746.4607 36314.95051
746.6507 36346.36635
746.8408 35972.61205
747.0308 36421.93640
747.2208 36048.53025
747.4108 36127.31561
747.6007 36255.96901
747.7907 36579.19992
747.9806 36347.26746
748.1706 36246.40500
748.3605 35945.21023
748.5504 35905.62300
748.7403 36356.17612
748.9302 35853.21547
749.1200 35960.05800
749.3098 35838.71586
749.4997 35513.47794
749.6895 35759.37755
749.8793 35718.76633
750.0691 36139.95158
750.2588 35752.27110
750.4486 35539.05707
750.6383 35618.70257
750.8280 35099.54250
751.0177 35015.26858
751.2074 35053.19696
751.3971 35163.68488
751.5868 35158.25776
751.7764 35037.16137
751.9660 34847.17131
752.1557 34929.23341
752.3453 35072.22259
752.5348 35275.52445
752.7244 35514.39953
752.9140 35638.17876
753.1035 35361.19098
753.2930 35385.60277
753.4825 34964.90903
753.6720 35241.28241
753.8615 35126.94432
754.0510 34818.70454
754.2404 34905.31314
754.4299 34902.95797
754.6193 34868.44970
754.8087 34765.60071
754.9981 34923.39670
755.1875 34610.11892
755.3768 34434.66944
755.5662 34556.87174
755.7555 34575.40585
755.9448 34504.97621
756.1341 34537.57987
756.3234 34124.56601
756.5127 34114.42857
756.7019 34441.77589
756.8912 34622.61153
757.0804 34396.39290
757.2696 34373.82429
757.4588 34109.45200
757.6480 33891.01566
757.8371 33588.12108
758.0263 33732.40048
758.2154 33818.61996
758.4045 33458.27986
758.5936 33308.90102
758.7827 33670.08079
758.9718 33808.38012
759.1609 33559.06040
759.3499 33614.51940
759.5389 33135.99102
759.7280 33446.40164
759.9170 33621.81016
760.1059 33478.28851
760.2949 33397.55759
760.4839 33742.68128
760.6728 33504.52299
760.8617 33457.44019
761.0506 33142.21684
761.2395 32827.19829
761.4284 33178.69117
761.6173 33094.74493
761.8061 33079.54900
761.9950 33036.29590
762.1838 32755.80610
762.3726 33229.68559
762.5614 32831.64238
762.7502 33257.59940
762.9389 32488.71001
763.1277 32688.42793
763.3164 33126.34508
763.5051 32894.82222
763.6938 33240.56030
763.8825 32856.23849
764.0712 33398.21294
764.2598 32885.58588
764.4484 33121.49140
764.6371 33178.91644
764.8257 32912.84434
765.0143 33068.48997
765.2029 32648.22630
765.3914 32753.86053
765.5800 32977.08912
765.7685 32518.22124
765.9570 32667.19049
766.1455 32126.11715
766.3340 31850.17384
766.5225 32162.85771
766.7110 32153.90808
766.8994 31855.25280
767.0878 31566.75544
767.2762 31937.04867
767.4646 31819.06519
767.6530 31863.54707
767.8414 31956.29958
768.0298 31642.50981
768.2181 31520.47135
768.4064 31627.43676
768.5947 31623.09506
768.7830 31608.90264
768.9713 31562.20895
769.1596 31267.73152
769.3478 31209.20058
769.5360 31471.77065
769.7243 31330.23553
769.9125 31010.67049
770.1007 30743.04193
770.2888 30791.74263
770.4770 30898.05269
770.6651 30732.90449
770.8533 30533.20705
771.0414 30311.55540
771.2295 30513.52607
771.4176 30714.24749
771.6056 30817.99759
771.7937 30569.27178
771.9817 30288.49527
772.1698 30882.01709
772.3578 30793.83156
772.5458 30488.31558
772.7337 30032.68349
772.9217 30451.96413
773.1096 30131.86662
773.2976 30382.64039
773.4855 30713.05967
773.6734 30051.75008
773.8613 30127.42252
774.0492 30321.83620
774.2370 30040.13810
774.4249 30102.27347
774.6127 30356.63119
774.8005 30176.90145
774.9883 30197.64737
775.1761 30317.69930
775.3639 29822.33662
775.5516 29918.65259
775.7394 29677.66811
775.9271 29755.71620
776.1148 29807.26357
776.3025 29155.62039
776.4902 29291.52360
776.6778 29187.36391
776.8655 29571.97244
777.0531 29777.97762
777.2407 29790.59310
777.4283 29392.57038
777.6159 29481.30886
777.8035 29314.39941
777.9911 29107.18593
778.1786 29277.61789
778.3661 28797.86073
778.5536 29105.01509
778.7411 29143.06635
778.9286 29377.14917
779.1161 29190.19011
779.3036 28810.43526
779.4910 28824.95536
779.6784 28955.16521
779.8658 29167.35525
780.0532 28617.63948
780.2406 28957.74565
780.4280 28710.45343
780.6153 28844.20627
780.8026 28844.10387
780.9900 28995.28492
781.1773 28402.02933
781.3646 28798.16793
781.5518 28606.00702
781.7391 28392.60868
781.9263 28540.88161
782.1136 28352.63233
782.3008 28081.58366
782.4880 28200.91880
782.6752 28106.15929
782.8623 28041.36156
783.0495 28409.52490
783.2366 27780.85993
783.4237 27939.22935
783.6108 28301.67886
783.7979 28052.48203
783.9850 28069.50065
784.1721 28296.21079
784.3591 27784.73059
784.5462 27729.74263
784.7332 27893.60061
784.9202 28086.10967
785.1072 27642.94972
785.2941 27541.02231
785.4811 27390.16893
785.6681 27593.18407
785.8550 27556.66879
786.0419 27351.89240
786.2288 27278.63655
786.4157 27053.33951
786.6025 27062.37105
786.7894 27211.17646
786.9762 27140.39866
787.1631 26609.79044
787.3499 26910.65753
787.5367 27119.40698
787.7234 26757.57187
787.9102 26990.48735
788.0970 27070.68581
788.2837 27085.96365
788.4704 26515.23572
788.6571 26215.04446
788.8438 26266.01841
789.0305 26141.21519
789.2171 26072.85399
789.4038 25971.62290
789.5904 26226.12397
789.7770 26313.32648
789.9636 26325.36854
790.1502 26387.72919
790.3368 26343.92314
790.5233 26505.48739
790.7099 26237.08061
790.8964 25724.49451
791.0829 25770.69668
791.2694 25724.12587
791.4559 25745.34283
791.6423 25720.84913
791.8288 25786.54796
792.0152 25944.79451
792.2016 25884.29751
792.3880 26100.66541
792.5744 25731.43712
792.7608 25272.85596
792.9471 25240.35470
793.1335 25829.00235
793.3198 25510.48177
793.5061 25620.33482
793.6924 25204.39237
793.8787 25008.03312
794.0650 25052.51500
794.2512 25504.19451
794.4375 25540.15684
794.6237 25629.38684
794.8099 25602.23077
794.9961 25095.82954
795.1823 25042.04988
795.3684 25087.41239
795.5546 24738.35660
795.7407 24741.28519
795.9268 24650.58066
796.1129 24992.55048
796.2990 25082.94782
796.4851 25348.61033
796.6712 25074.57163
796.8572 25001.72538
797.0432 24691.51955
797.2292 25001.43866
797.4152 25060.46112
797.6012 24536.03776
797.7872 24358.97039
797.9731 24402.75596
798.1591 24206.04856
798.3450 24058.12378
798.5309 24281.74148
798.7168 24285.05919
798.9027 24250.16181
799.0885 24482.36050
799.2744 24300.60328
799.4602 24619.39009
799.6460 24563.68534
799.8318 24972.15271
800.0176 24490.59334
800.2034 24564.99604
800.3892 24025.19244
800.5749 23971.02367
800.7606 23876.85806
800.9463 24094.22947
801.1320 23932.27610
801.3177 23978.47827
801.5034 23873.74515
801.6890 24238.87750
801.8747 23698.17279
802.0603 23455.59089
802.2459 23398.32968
802.4315 23536.91573
802.6171 23200.92598
802.8026 23470.41818
802.9882 23415.28687
803.1737 23219.74681
803.3592 23492.45433
803.5447 23397.18282
803.7302 23659.95769
803.9157 23528.37570
804.1012 23643.53298
804.2866 23101.39470
804.4720 23163.57103
804.6574 23054.12758
804.8428 22991.41877
805.0282 22970.87765
805.2136 22805.36081
805.3989 23084.64231
805.5843 22928.32086
805.7696 22867.27091
805.9549 22707.54983
806.1402 22481.08544
806.3255 22467.03638
806.5107 22689.50722
806.6960 22904.68730
806.8812 22451.67661
807.0664 22641.66667
807.2516 22365.23185
807.4368 22171.14585
807.6220 21998.31777
807.8072 22104.17727
807.9923 22260.51921
808.1774 22129.87928
808.3625 22354.54145
808.5476 22379.99770
808.7327 22528.08632
808.9178 22097.31658
809.1028 22032.68268
809.2879 21926.16783
809.4729 21888.64904
809.6579 21724.93442
809.8429 21816.15095
810.0279 21768.57663
810.2128 21517.96670
810.3978 21696.26286
810.5827 21842.44687
810.7676 21962.10968
810.9525 22061.14945
811.1374 21778.05873
811.3223 21725.22113
811.5072 21521.12057
811.6920 21656.02027
811.8768 21696.44717
812.0616 21559.49950
812.2464 21634.02509
812.4312 21418.16918
812.6160 21542.41944
812.8007 21638.28486
812.9855 21662.51233
813.1702 21507.58350
813.3549 21477.58075
813.5396 21112.75560
813.7243 21231.16915
813.9089 21245.40254
814.0936 21342.55817
814.2782 21336.96722
814.4628 21187.44502
814.6474 21224.22654
814.8320 21209.44020
815.0166 20864.84898
815.2012 20983.40589
815.3857 20815.84109
815.5702 20773.73485
815.7547 20845.00417
815.9392 20996.65625
816.1237 20730.13360
816.3082 20514.15481
816.4926 20681.57626
816.6771 20807.89497
816.8615 20505.79910
817.0459 20716.30981
817.2303 20527.52805
817.4147 20635.80416
817.5990 20681.84250
817.7834 20403.03203
817.9677 20412.82132
818.1520 20610.59366
818.3363 20442.70118
818.5206 20249.47533
818.7049 20136.36602
818.8891 20197.70268
819.0734 20287.71091
819.2576 20401.20934
819.4418 20082.38156
819.6260 20032.63640
819.8102 20071.50685
819.9944 20061.53324
820.1785 19820.79451
820.3627 20035.99507
820.5468 20051.17052
820.7309 19787.67886
820.9150 19586.09730
821.0991 19399.34302
821.2831 19729.12743
821.4672 19596.17330
821.6512 19443.92730
821.8352 19465.24666
822.0192 19811.72201
822.2032 19536.27022
822.3872 19598.01647
822.5711 19399.62974
822.7551 19310.50214
822.9390 19322.54420
823.1229 19373.80485
823.3068 19375.40227
823.4907 19214.12473
823.6745 19198.47825
823.8584 19074.94477
824.0422 19224.95849
824.2261 19280.82707
824.4099 19305.11598
824.5937 19397.19266
824.7774 19426.08950
824.9612 19323.46578
825.1449 19036.91400
825.3287 19132.65653
825.5124 19109.98552
825.6961 19286.41803
825.8798 19153.56630
826.0634 19223.09483
826.2471 19062.47265
826.4307 19298.37817
826.6144 19087.62170
826.7980 19185.55557
826.9816 18994.35720
827.1652 19146.02977
827.3487 19039.16676
827.5323 18653.61616
827.7158 18511.95817
827.8993 18775.69558
828.0828 18620.76675
828.2663 18326.20740
828.4498 18523.57015
828.6333 18727.28160
828.8167 18495.47202
829.0001 18559.94207
829.1836 18664.06080
829.3670 18605.67322
829.5504 18842.45936
829.7337 18684.72481
829.9171 18565.38967
830.1004 18609.95347
830.2837 18564.01753
830.4671 18338.82289
830.6504 18235.42095
830.8336 18368.90755
831.0169 18190.83667
831.2002 18507.82127
831.3834 18403.27246
831.5666 18188.58390
831.7498 18214.73646
831.9330 18530.36940
832.1162 18348.53026
832.2993 18205.41820
832.4825 18319.18287
832.6656 18176.09129
832.8487 17722.11806
833.0318 17879.13582
833.2149 17761.88961
833.3980 17808.17370
833.5811 17924.33449
833.7641 17869.51037
833.9471 17729.98226
834.1301 17580.60342
834.3131 17433.45686
834.4961 17565.07981
834.6791 17641.73528
834.8620 18021.14197
835.0450 17875.94099
835.2279 17938.50644
835.4108 17836.08752
835.5937 17899.43119
835.7766 17656.15298
835.9594 17608.23052
836.1423 17648.22735
836.3251 17886.93858
836.5079 17889.10943
836.6907 17450.92604
836.8735 17360.20102
837.0563 17362.31043
837.2390 17470.68893
837.4218 17331.11986
837.6045 17608.45579
837.7872 17618.30652
837.9699 17489.48929
838.1526 17269.00497
838.3352 17262.06236
838.5179 17194.02884
838.7005 17275.86567
838.8831 17406.58751
839.0658 17395.48752
839.2483 17403.92515
839.4309 17465.99909
839.6135 17435.27955
839.7960 17011.45242
839.9786 17070.06529
840.1611 16946.61373
840.3436 17151.04197
840.5261 16929.45175
840.7085 16835.55239
840.8910 16734.17793
841.0734 16747.91980
841.2559 16643.96491
841.4383 16843.49850
841.6207 17034.67639
841.8030 16858.91971
841.9854 16776.46849
842.1678 16663.72781
842.3501 16748.67755
842.5324 16653.36509
842.7147 16799.34430
842.8970 17020.99596
843.0793 16948.88698
843.2615 16841.24574
843.4438 16895.10732
843.6260 16856.52359
843.8082 16765.63473
843.9904 16782.07992
844.1726 16624.61160
844.3548 16568.39486
844.5369 16492.33330
844.7191 16493.72592
844.9012 16353.72678
845.0833 16343.60981
845.2654 16659.03796
845.4475 16784.00501
845.6296 16523.87202
845.8116 16433.00365
845.9936 16331.64968
846.1757 16368.63599
846.3577 16317.45725
846.5397 16376.68451
846.7216 16259.58165
846.9036 16148.60223
847.0855 15915.56386
847.2675 16106.98750
847.4494 16038.66727
847.6313 16318.17404
847.8132 16388.07121
847.9950 16256.20251
848.1769 16175.86069
848.3587 16342.42199
848.5406 16140.86091
848.7224 16116.85871
848.9042 15992.95660
849.0860 16081.92037
849.2677 15924.39061
849.4495 15840.79253
849.6312 15834.91485
849.8129 15892.31942
849.9946 16009.38131
850.1763 15912.53287
850.3580 15747.20035
850.5397 15694.58804
850.7213 15385.24236
850.9029 15434.14785
851.0845 15560.60992
851.2661 15564.43962
851.4477 15526.32692
851.6293 15567.38870
851.8109 15547.48244
851.9924 15669.86905
852.1739 15713.94134
852.3554 15630.32278
852.5369 15523.48025
852.7184 15349.77154
852.8999 15340.98575
853.0813 15312.99002
853.2628 15387.24937
853.4442 15461.61111
853.6256 15420.50838
853.8070 15556.53446
853.9883 15562.47357
854.1697 15390.73091
854.3510 15259.57899
854.5324 15287.30849
854.7137 15252.65686
854.8950 15160.78498
855.0763 15216.98124
855.2575 15230.08824
855.4388 15241.43399
855.6200 15236.88750
855.8013 15261.97512
855.9825 15180.79364
856.1637 15142.57854
856.3449 14994.51040
856.5260 15048.04430
856.7072 15069.67085
856.8883 15276.29042
857.0694 15157.30343
857.2505 15226.11518
857.4316 15169.40693
857.6127 15031.08712
857.7938 15132.89165
857.9748 15193.65488
858.1558 15046.46737
858.3368 14931.00289
858.5178 14874.19223
858.6988 14961.35378
858.8798 14864.66918
859.0607 15030.82088
859.2417 14855.04373
859.4226 14895.61399
859.6035 14962.07057
859.7844 15027.70797
859.9653 14909.15106
860.1462 14730.26099
860.3270 14674.74056
860.5078 14621.86200
860.6887 14653.46216
860.8695 14612.37991
861.0503 14686.92597
861.2310 14458.88465
861.4118 14418.31439
861.5925 14383.10981
861.7733 14278.39717
861.9540 14148.08491
862.1347 14006.69315
862.3154 13988.67103
862.4960 14122.34195
862.6767 14145.70927
862.8573 14076.40601
863.0380 14053.77595
863.2186 14116.77147
863.3992 14036.61398
863.5797 13991.08763
863.7603 13990.65756
863.9409 13933.13011
864.1214 13966.49152
864.3019 14045.15400
864.4824 14027.37764
864.6629 13908.96408
864.8434 13691.01925
865.0238 13818.46434
865.2043 13903.82368
865.3847 13584.85255
865.5651 13511.41239
865.7455 13725.11793
865.9259 13699.88695
866.1063 13585.18022
866.2866 13582.06731
866.4670 13584.34056
866.6473 13463.81760
866.8276 13403.17724
867.0079 13339.79261
867.1882 13281.79413
867.3684 13153.52985
867.5487 13132.57913
867.7289 13135.46677
867.9091 13201.12464
868.0893 13030.46741
868.2695 12863.70131
868.4497 12787.76263
868.6299 12887.78542
868.8100 12982.74974
868.9901 12929.03152
869.1703 13045.86813
869.3504 13064.23841
869.5304 12990.12242
869.7105 13017.42185
869.8906 12980.80417
870.0706 12898.68062
870.2506 13025.96188
870.4306 13020.51428
870.6106 12968.96691
870.7906 13086.54079
870.9706 12940.39774
871.1505 12748.62595
871.3305 12790.11780
871.5104 12634.20593
871.6903 12600.98788
871.8702 12677.31568
872.0500 12667.58782
872.2299 12701.48171
872.4097 12512.86379
872.5896 12559.14788
872.7694 12592.87793
872.9492 12477.33153
873.1290 12248.36862
873.3087 12270.46620
873.4885 12544.87354
873.6682 12520.97374
873.8480 12395.02366
874.0277 12380.79028
874.2074 12149.90228
874.3870 12252.48504
874.5667 12303.23370
874.7463 12428.20076
874.9260 12221.90887
875.1056 12198.58250
875.2852 12110.33553
875.4648 12028.13006
875.6444 11981.49781
875.8239 12152.19601
876.0035 12061.69627
876.1830 12053.83207
876.3625 11986.92493
876.5420 12018.62749
876.7215 12016.06753
876.9010 11809.05885
877.0804 11850.48925
877.2599 11748.74617
877.4393 11917.62167
877.6187 11953.29728
877.7981 11962.26739
877.9775 11795.43985
878.1568 12018.54557
878.3362 11857.47283
878.5155 11825.58595
878.6948 11609.85293
878.8741 11624.84406
879.0534 11591.13449
879.2327 11520.74580
879.4119 11476.63256
879.5912 11378.16622
879.7704 11529.79783
879.9496 11659.94624
880.1288 11514.64286
880.3080 11317.38251
880.4872 11482.44879
880.6663 11471.43072
880.8455 11472.47518
881.0246 11523.40816
881.2037 11520.97108
881.3828 11426.27301
881.5619 11358.83340
881.7409 11285.24988
881.9200 11179.36989
882.0990 11301.83842
882.2780 11258.03237
882.4570 11179.18558
882.6360 11170.99370
882.8150 10975.24885
882.9940 10948.37950
883.1729 10968.51103
883.3518 11195.89700
883.5308 11120.16312
883.7096 11123.56275
883.8885 10977.70641
884.0674 10884.36000
884.2463 10817.20710
884.4251 10860.37828
884.6039 10737.47968
884.7827 10813.04972
884.9615 10768.54736
885.1403 10809.24050
885.3191 10880.55077
885.4978 10647.26665
885.6765 10686.03470
885.8553 10802.62556
886.0340 10762.66969
886.2127 10714.11235
886.3913 10622.15856
886.5700 10555.66101
886.7486 10447.65114
886.9273 10403.21022
887.1059 10333.62024
887.2845 10298.66141
887.4630 10399.93347
887.6416 10459.65224
887.8202 10487.01310
887.9987 10432.49617
888.1772 10416.78825
888.3557 10406.77368
888.5342 10300.17691
888.7127 10394.85450
888.8912 10299.52156
889.0696 10314.94276
889.2481 10163.96651
889.4265 10088.31454
889.6049 10049.64889
889.7833 10083.70661
889.9616 10001.78786
890.1400 9979.77220
890.3183 9745.40265
890.4967 9866.43761
890.6750 10045.65535
890.8533 9949.91281
891.0316 9910.81709
891.2098 9857.69278
891.3881 9821.66901
891.5663 9780.38196
891.7445 9785.46092
891.9227 9647.89886
892.1009 9631.00312
892.2791 9767.64360
892.4573 9836.84446
892.6354 9698.91376
892.8136 9742.04399
892.9917 9725.88551
893.1698 9587.07419
893.3479 9745.23882
893.5259 9838.81051
893.7040 9733.56540
893.8820 9638.29389
894.0601 9645.37986
894.2381 9675.75124
894.4161 9698.01266
894.5941 9693.28185
894.7720 9723.38699
894.9500 9714.99032
895.1279 9781.28307
895.3058 9688.75584
895.4838 9687.97761
895.6616 9557.19433
895.8395 9470.97484
896.0174 9427.82414
896.1952 9473.04329
896.3731 9546.50393
896.5509 9516.70598
896.7287 9489.54992
896.9065 9461.18555
897.0842 9458.37983
897.2620 9395.99871
897.4397 9364.07087
897.6175 9363.47696
897.7952 9366.67179
897.9729 9528.42037
898.1506 9492.08940
898.3282 9389.75240
898.5059 9334.80540
898.6835 9343.24303
898.8611 9408.73707
899.0388 9299.86705
899.2163 9131.83122
899.3939 9090.35985
899.5715 9192.14390
899.7490 9155.77197
899.9266 9192.73781
900.1041 9269.96671
900.2816 9271.99420
900.4591 9149.85334
900.6365 9134.67789
900.8140 9009.91564
900.9914 9053.74217
901.1689 9015.97762
901.3463 8966.64206
901.5237 8995.55938
901.7011 8983.27156
901.8784 8977.18910
902.0558 8838.45969
902.2331 8932.01091
902.4104 9028.12208
902.5878 9029.06415
902.7650 8957.48764
902.9423 8883.88364
903.1196 8949.56200
903.2968 9058.57537
903.4741 9026.60658
903.6513 8941.02197
903.8285 8851.75101
904.0057 8869.71170
904.1828 8730.53174
904.3600 8622.70619
904.5371 8655.67848
904.7143 8694.71277
904.8914 8757.09390
905.0685 8851.66909
905.2456 8843.47722
905.4226 8818.04145
905.5997 8854.88440
905.7767 8926.09228
905.9537 8740.64871
906.1307 8667.00375
906.3077 8591.10603
906.4847 8551.82599
906.6617 8586.86673
906.8386 8616.93091
907.0156 8559.26011
907.1925 8476.37882
907.3694 8440.02737
907.5463 8495.28157
907.7231 8518.17786
907.9000 8506.52492
908.0768 8492.14818
908.2537 8349.97819
908.4305 8379.53038
908.6073 8516.68284
908.7841 8505.50093
908.9608 8403.22537
909.1376 8396.93811
909.3143 8384.91653
909.4910 8277.13194
909.6677 8265.90907
909.8444 8300.99078
910.0211 8316.08430
910.1978 8260.91203
910.3744 8280.87972
910.5510 8320.13928
910.7277 8347.93022
910.9043 8270.68084
911.0808 8308.09723
911.2574 8265.31516
911.4340 8204.77720
911.6105 8088.28874
911.7870 8131.76712
911.9636 8133.03686
912.1401 8084.33616
912.3165 8151.85769
912.4930 8109.54666
912.6695 8019.43603
912.8459 7998.75155
913.0223 8005.63272
913.1987 8000.71760
913.3751 7954.84310
913.5515 7867.70203
913.7279 7882.61124
913.9042 7904.17635
914.0805 7874.80848
914.2568 7849.57750
914.4331 7827.15225
914.6094 7814.74155
914.7857 7785.41464
914.9620 7773.98698
915.1382 7701.20217
915.3144 7638.35001
915.4906 7786.27479
915.6668 7822.70815
915.8430 7724.11894
916.0192 7535.84917
916.1953 7645.68173
916.3715 7706.69072
916.5476 7613.93822
916.7237 7658.15386
916.8998 7655.20479
917.0759 7619.85685
917.2519 7570.48032
917.4280 7630.58820
917.6040 7613.59006
917.7800 7610.68195
917.9560 7607.13896
918.1320 7546.35525
918.3080 7534.12888
918.4839 7458.41547
918.6599 7424.91070
918.8358 7495.03315
919.0117 7478.77228
919.1876 7404.65629
919.3635 7401.09283
919.5394 7514.77557
919.7152 7441.13062
919.8911 7369.41075
920.0669 7339.85856
920.2427 7275.65474
920.4185 7233.91714
920.5942 7197.29946
920.7700 7184.00814
920.9458 7253.53668
921.1215 7263.46933
921.2972 7212.47490
921.4729 7225.84814
921.6486 7108.66337
921.8243 6986.39963
921.9999 7019.82248
922.1756 7028.95643
922.3512 7054.76083
922.5268 6965.28508
922.7024 7039.44202
922.8780 7107.39363
923.0535 7122.24140
923.2291 7076.20306
923.4046 7092.89401
923.5801 7208.13321
923.7557 7100.69677
923.9311 7057.91470
924.1066 7016.32046
924.2821 7069.17853
924.4575 7069.79292
924.6330 7030.98391
924.8084 6919.34914
924.9838 6873.55656
925.1592 6869.09198
925.3345 6864.11542
925.5099 6824.40531
925.6852 6812.85476
925.8606 6788.05386
926.0359 6749.90020
926.2112 6751.82529
926.3864 6706.60614
926.5617 6647.13313
926.7370 6636.52465
926.9122 6584.71104
927.0874 6565.52158
927.2626 6554.54446
927.4378 6558.64040
927.6130 6527.44984
927.7882 6493.86315
927.9633 6438.07648
928.1384 6391.79239
928.3135 6303.17678
928.4886 6273.80891
928.6637 6300.24818
928.8388 6320.62547
929.0139 6337.50074
929.1889 6312.22880
929.3639 6298.32309
929.5389 6327.60905
929.7139 6284.51978
929.8889 6288.26757
930.0639 6306.84264
930.2388 6256.85173
930.4138 6228.79455
930.5887 6233.05433
930.7636 6315.07548
930.9385 6269.48769
931.1134 6135.83725
931.2882 6119.96550
931.4631 6056.94950
931.6379 6040.99582
931.8127 6019.75838
931.9875 6035.52774
932.1623 6004.48054
932.3371 6005.62740
932.5118 6019.84030
932.6866 5987.97391
932.8613 5954.75586
933.0360 5970.07466
933.2107 5906.34188
933.3854 5879.32917
933.5600 5879.51348
933.7347 5760.91561
933.9093 5755.26322
934.0839 5787.31393
934.2586 5806.56484
934.4331 5810.14878
934.6077 5762.06248
934.7823 5732.01878
934.9568 5738.55180
935.1314 5696.77323
935.3059 5709.24536
935.4804 5657.71847
935.6549 5672.17713
935.8293 5682.80609
936.0038 5634.84266
936.1782 5672.32049
936.3526 5682.39649
936.5271 5592.01963
936.7015 5539.28444
936.8758 5540.43130
937.0502 5563.20471
937.2246 5562.03737
937.3989 5603.18106
937.5732 5541.20953
937.7475 5480.48725
937.9218 5450.19780
938.0961 5445.69226
938.2703 5442.45647
938.4446 5413.00668
938.6188 5449.54245
938.7930 5418.84339
938.9672 5358.05968
939.1414 5405.44968
939.3156 5330.61690
939.4897 5268.01050
939.6639 5228.23894
939.8380 5256.27563
940.0121 5276.18189
940.1862 5312.79957
940.3603 5299.32394
940.5344 5337.41616
940.7084 5311.28408
940.8824 5308.08924
941.0565 5304.95585
941.2305 5240.50628
941.4045 5172.73899
941.5784 5146.36115
941.7524 5153.65192
941.9263 5227.84983
942.1003 5239.46181
942.2742 5205.05594
942.4481 5107.38831
942.6220 5121.94936
942.7958 5126.29106
942.9697 5151.56299
943.1435 5167.84434
943.3174 5131.51338
943.4912 5100.05658
943.6650 5079.55641
943.8387 5032.53505
944.0125 4977.23989
944.1863 5006.07529
944.3600 4999.13268
944.5337 4963.57994
944.7074 4982.99468
944.8811 4976.11351
945.0548 4937.42738
945.2284 4870.06969
945.4021 4875.25105
945.5757 4889.21820
945.7493 4826.14076
945.9229 4734.22792
946.0965 4695.84899
946.2701 4680.91929
946.4436 4731.70892
946.6172 4725.91317
946.7907 4731.83180
946.9642 4718.62240
947.1377 4700.84603
947.3112 4719.27775
947.4847 4753.58122
947.6581 4766.05335
947.8315 4742.27644
948.0050 4666.56303
948.1784 4644.44497
948.3518 4695.64419
948.5251 4662.03702
948.6985 4683.82741
948.8718 4683.58165
949.0452 4620.93429
949.2185 4636.64221
949.3918 4595.10940
949.5651 4599.79925
949.7383 4540.44912
949.9116 4555.37881
950.0848 4571.47584
950.2581 4563.93932
950.4313 4614.91326
950.6045 4619.29591
950.7776 4596.74778
950.9508 4540.12144
951.1239 4521.03437
951.2971 4449.99034
951.4702 4465.32962
951.6433 4449.92890
951.8164 4424.57505
951.9895 4453.26709
952.1625 4393.63024
952.3356 4404.19776
952.5086 4373.60110
952.6816 4425.74239
952.8546 4388.55127
953.0276 4378.96678
953.2006 4374.70701
953.3735 4344.37659
953.5465 4353.49005
953.7194 4329.36498
953.8923 4331.35151
954.0652 4338.51940
954.2381 4294.67239
954.4109 4273.06632
954.5838 4251.95176
954.7566 4239.11100
954.9294 4196.61564
955.1022 4229.71082
955.2750 4218.81563
955.4478 4207.92043
955.6206 4216.39902
955.7933 4251.50121
955.9660 4215.49792
956.1388 4201.34645
956.3115 4171.69186
956.4841 4138.71957
956.6568 4087.27459
956.8295 4096.67477
957.0021 4085.02183
957.1747 4107.11941
957.3473 4090.98142
957.5199 4056.26835
957.6925 4074.16759
957.8651 4092.16924
958.0376 4113.95962
958.2102 4068.22848
958.3827 4101.89709
958.5552 4143.42990
958.7277 4109.55649
958.9001 4061.42923
959.0726 4000.48168
959.2450 3971.93299
959.4175 3961.85699
959.5899 3916.53544
959.7623 3915.20426
959.9347 3890.01424
960.1070 3870.49710
960.2794 3871.39821
960.4517 3848.97295
960.6241 3869.10448
960.7964 3903.69467
960.9687 3898.12420
961.1409 3879.77440
961.3132 3856.44803
961.4855 3809.75435
961.6577 3805.24882
961.8299 3807.58350
962.0021 3812.12999
962.1743 3757.34683
962.3465 3742.29426
962.5186 3726.70921
962.6908 3743.85071
962.8629 3730.51844
963.0350 3713.41790
963.2071 3719.02933
963.3792 3689.66146
963.5513 3678.45907
963.7233 3719.52084
963.8954 3715.83450
964.0674 3688.08452
964.2394 3692.50814
964.4114 3652.98234
964.5834 3648.80448
964.7553 3646.34692
964.9273 3659.14673
965.0992 3618.86318
965.2711 3625.72388
965.4430 3643.04969
965.6149 3628.36575
965.7868 3584.41635
965.9587 3581.28295
966.1305 3596.56080
966.3023 3604.85507
966.4741 3629.28734
966.6459 3586.44383
966.8177 3597.81006
966.9895 3573.31635
967.1613 3555.47855
967.3330 3553.41010
967.5047 3516.85386
967.6764 3525.06621
967.8481 3501.14594
968.0198 3495.18635
968.1915 3465.67512
968.3631 3470.83600
968.5347 3470.11921
968.7064 3460.69855
968.8780 3456.21350
969.0496 3469.56626
969.2211 3425.16630
969.3927 3456.52070
969.5642 3416.99490
969.7358 3407.36945
969.9073 3373.88516
970.0788 3414.78309
970.2503 3424.75670
970.4217 3435.59046
970.5932 3408.00432
970.7646 3400.83643
970.9360 3404.64565
971.1074 3401.81945
971.2788 3413.55431
971.4502 3405.17812
971.6216 3379.10748
971.7929 3342.38740
971.9643 3317.21786
972.1356 3348.57226
972.3069 3346.97485
972.4782 3332.49571
972.6494 3316.93115
972.8207 3301.83762
972.9919 3302.34961
973.1632 3272.22399
973.3344 3240.52143
973.5056 3235.13528
973.6768 3222.15115
973.8479 3266.12104
974.0191 3283.83597
974.1902 3260.96016
974.3614 3224.38344
974.5325 3243.90058
974.7036 3223.78953
974.8746 3208.77792
975.0457 3208.26593
975.2167 3188.58495
975.3878 3189.05598
975.5588 3190.51004
975.7298 3197.47313
975.9008 3163.21061
976.0718 3150.41081
976.2427 3142.40325
976.4137 3127.98555
976.5846 3122.25124
976.7555 3102.79553
976.9264 3114.96047
977.0973 3098.08521
977.2682 3109.14424
977.4390 3109.36951
977.6098 3132.88020
977.7807 3149.85786
977.9515 3140.25288
978.1223 3140.13000
978.2930 3108.85752
978.4638 3071.13394
978.6346 3033.92235
978.8053 3020.38527
978.9760 3002.81370
979.1467 2988.08880
979.3174 3005.80373
979.4881 2996.87459
979.6587 3016.80133
979.8294 3008.52753
980.0000 2997.42754
980.1706 2982.49785
980.3412 2965.64307
980.5118 2952.24935
980.6824 2952.45415
980.8529 2977.78752
981.0235 2980.67516
981.1940 2973.58919
981.3645 2947.06799
981.5350 2952.69990
981.7055 2931.19623
981.8759 2935.31265
982.0464 2939.26523
982.2168 2913.95234
982.3872 2937.99549
982.5576 2922.34901
982.7280 2925.95343
982.8984 2919.74809
983.0687 2912.90787
983.2391 2889.45863
983.4094 2891.97763
983.5797 2869.83909
983.7500 2860.97138
983.9203 2837.70646
984.0906 2855.21659
984.2608 2823.04300
984.4311 2848.66309
984.6013 2822.65389
984.7715 2862.30256
984.9417 2848.72453
985.1119 2837.76790
985.2820 2805.84007
985.4522 2811.10335
985.6223 2803.28010
985.7924 2810.48895
985.9625 2812.72124
986.1326 2826.87270
986.3027 2825.54153
986.4727 2826.54503
986.6428 2801.98988
986.8128 2789.72255
986.9828 2766.53955
987.1528 2778.02865
987.3228 2777.72145
987.4928 2786.46628
987.6627 2766.84674
987.8327 2763.91815
988.0026 2742.90599
988.1725 2744.76964
988.3424 2729.12316
988.5123 2737.60175
988.6821 2731.25304
988.8520 2719.86634
989.0218 2710.85528
989.1916 2736.76208
989.3614 2697.17484
989.5312 2691.64533
989.7010 2668.21657
989.8707 2663.54720
990.0405 2667.31546
990.2102 2669.99830
990.3799 2669.60918
990.5496 2663.46528
990.7193 2666.68059
990.8890 2654.53613
991.0586 2636.86216
991.2283 2660.22949
991.3979 2640.56899
991.5675 2648.39223
991.7371 2619.76163
991.9067 2615.23561
992.0762 2584.06553
992.2458 2607.67861
992.4153 2607.53525
992.5848 2633.83117
992.7543 2627.35959
992.9238 2606.55223
993.0933 2600.61312
993.2627 2596.82438
993.4322 2589.30833
993.6016 2591.86829
993.7710 2557.95393
993.9404 2577.04100
994.1098 2564.50743
994.2792 2577.38915
994.4485 2551.40043
994.6179 2548.43087
994.7872 2559.69470
994.9565 2550.60172
995.1258 2569.89359
995.2951 2555.41445
995.4643 2571.88012
995.6336 2568.11185
995.8028 2552.75209
995.9720 2527.02960
996.1412 2531.10506
996.3104 2532.31336
996.4796 2526.92720
996.6487 2520.33274
996.8179 2522.99510
996.9870 2523.38422
997.1561 2498.84955
997.3252 2502.29014
997.4943 2483.69458
997.6634 2477.14108
997.8324 2483.73554
998.0014 2488.30251
998.1705 2469.85031
998.3395 2459.95862
998.5085 2437.98392
998.6774 2430.85699
998.8464 2414.32988
999.0153 2426.45385
999.1843 2453.73280
999.3532 2453.48704
999.5221 2433.96990
999.6910 2450.74276
999.8599 2441.95698
1000.0287 2472.73795
1000.1976 2461.63796
1000.3664 2455.78077
1000.5352 2445.49996
1000.7040 2443.71823
1000.8728 2424.91788
1001.0415 2404.41771
1001.2103 2390.38912
1001.3790 2391.16735
1001.5478 2382.60684
1001.7165 2377.11829
1001.8851 2381.64430
1002.0538 2390.12289
1002.2225 2382.72972
1002.3911 2396.94263
1002.5598 2357.96978
1002.7284 2357.21203
1002.8970 2352.78842
1003.0656 2355.36886
1003.2341 2336.17939
1003.4027 2336.65042
1003.5712 2316.74417
1003.7398 2312.79159
1003.9083 2326.00099
1004.0768 2312.68919
1004.2453 2304.08772
1004.4137 2320.22572
1004.5822 2291.88183
1004.7506 2309.39196
1004.9190 2279.08202
1005.0874 2285.55360
1005.2558 2282.95268
1005.4242 2290.30489
1005.5926 2281.45767
1005.7609 2271.23830
1005.9292 2250.63574
1006.0976 2274.18738
1006.2659 2267.01949
1006.4342 2283.56707
1006.6024 2281.47815
1006.7707 2283.56708
1006.9389 2263.86562
1007.1071 2277.73036
1007.2754 2258.56138
1007.4436 2265.97502
1007.6117 2249.32504
1007.7799 2251.55732
1007.9481 2243.73408
1008.1162 2246.33500
1008.2843 2225.83484
1008.4524 2238.75752
1008.6205 2238.63464
1008.7886 2235.21453
1008.9566 2230.85236
1009.1247 2224.81085
1009.2927 2207.71031
1009.4607 2208.59094
1009.6287 2200.19427
1009.7967 2202.50847
1009.9647 2198.45349
1010.1327 2193.55885
1010.3006 2185.83801
1010.4685 2186.43192
1010.6364 2177.01126
1010.8043 2177.50277
1010.9722 2159.11201
1011.1401 2156.10150
1011.3079 2153.56202
1011.4758 2161.42622
1011.6436 2154.38121
1011.8114 2172.23949
1011.9792 2155.73287
1012.1470 2167.91828
1012.3147 2157.16644
1012.4825 2168.10260
1012.6502 2168.36883
1012.8179 2169.74097
1012.9856 2149.91663
1013.1533 2163.98618
1013.3210 2135.68325
1013.4886 2132.22218
1013.6563 2123.90743
1013.8239 2126.16020
1013.9915 2129.62126
1014.1591 2124.89046
1014.3267 2116.67810
1014.4942 2136.89155
1014.6618 2126.22164
1014.8293 2125.44341
1014.9969 2113.70855
1015.1644 2123.76407
1015.3319 2118.52127
1015.4993 2112.78696
1015.6668 2095.07203
1015.8342 2107.21649
1016.0017 2092.20488
1016.1691 2100.29435
1016.3365 2096.40321
1016.5039 2079.40507
1016.6712 2092.63495
1016.8386 2089.27628
1017.0059 2080.92057
1017.1733 2091.75432
1017.3406 2075.04290
1017.5079 2082.72278
1017.6752 2059.80601
1017.8424 2058.45435
1018.0097 2054.48129
1018.1769 2064.78257
1018.3441 2058.82298
1018.5113 2056.95933
1018.6785 2043.23794
1018.8457 2064.31154
1019.0129 2044.95824
1019.1800 2057.77852
1019.3471 2059.08922
1019.5142 2053.74402
1019.6813 2053.15011
1019.8484 2055.36192
1020.0155 2047.43628
1020.1826 2046.28942
1020.3496 2025.27726
1020.5166 2017.31066
1020.6836 2020.91508
1020.8506 2024.62191
1021.0176 2000.39444
1021.1846 2009.52838
1021.3515 2010.79812
1021.5185 2016.30715
1021.6854 2006.84554
1021.8523 2011.94498
1022.0192 2010.44996
1022.1861 2003.03632
1022.3529 1991.48577
1022.5198 2009.32358
1022.6866 2001.33650
1022.8534 2006.62026
1023.0202 1988.43430
1023.1870 1993.82046
1023.3538 1984.72747
1023.5205 1993.73854
1023.6873 1985.42378
1023.8540 1983.74445
1024.0207 1976.33080
1024.1874 1986.67305
1024.3541 1966.68487
1024.5207 1989.54020
1024.6874 1962.85517
1024.8540 1972.74686
1025.0206 1963.67436
1025.1872 1960.76624
1025.3538 1960.68432
1025.5204 1960.37713
1025.6870 1952.16477
1025.8535 1953.04540
1026.0201 1939.75408
1026.1866 1952.04189
1026.3531 1943.07179
1026.5196 1948.84706
1026.6860 1953.08636
1026.8525 1946.57382
1027.0189 1929.92383
1027.1853 1936.29301
1027.3518 1932.31995
1027.5181 1946.26662
1027.6845 1931.23453
1027.8509 1931.97180
1028.0172 1922.75594
1028.1836 1914.03159
1028.3499 1912.76185
1028.5162 1916.55060
1028.6825 1901.35467
1028.8488 1895.10836
1029.0150 1910.16093
1029.1813 1903.38216
1029.3475 1896.13235
1029.5137 1904.95909
1029.6799 1888.39103
1029.8461 1896.76722
1030.0123 1883.74214
1030.1784 1891.58586
1030.3446 1896.21427
1030.5107 1890.97147
1030.6768 1880.71114
1030.8429 1877.70063
1031.0090 1864.71651
1031.1750 1886.85505
1031.3411 1872.76502
1031.5071 1880.75210
1031.6732 1875.18163
1031.8392 1876.75856
1032.0051 1862.62758
1032.1711 1872.02775
1032.3371 1859.73994
1032.5030 1860.12906
1032.6690 1862.44326
1032.8349 1866.72352
1033.0008 1851.75286
1033.1667 1862.42278
1033.3325 1846.48958
1033.4984 1853.73939
1033.6642 1852.57205
1033.8300 1863.52868
1033.9959 1842.29125
1034.1616 1860.60009
1034.3274 1858.28588
1034.4932 1844.64641
1034.6589 1833.17779
1034.8247 1854.08755
1034.9904 1830.18775
1035.1561 1851.36375
1035.3218 1840.57095
1035.4875 1834.07889
1035.6531 1834.61137
1035.8188 1845.89567
1035.9844 1821.36101
1036.1500 1832.27668
1036.3156 1814.41839
1036.4812 1811.03925
1036.6468 1822.79459
1036.8123 1823.14274
1036.9779 1810.93685
1037.1434 1822.44643
1037.3089 1812.10419
1037.4744 1817.26507
1037.6399 1814.00880
1037.8053 1820.72614
1037.9708 1801.43427
1038.1362 1817.96138
1038.3016 1809.85142
1038.4670 1818.16618
1038.6324 1813.76304
1038.7978 1780.58595
1038.9632 1807.25050
1039.1285 1798.52616
1039.2938 1783.43263
1039.4592 1793.14000
1039.6245 1786.85273
1039.7897 1789.51509
1039.9550 1784.72285
1040.1203 1800.34885
1040.2855 1777.02248
1040.4507 1791.64498
1040.6159 1785.72635
1040.7811 1775.15883
1040.9463 1780.07396
1041.1115 1764.79611
1041.2766 1767.70423
1041.4418 1759.67619
1041.6069 1752.85645
1041.7720 1757.44390
1041.9371 1754.74058
1042.1021 1757.52582
1042.2672 1742.22750
1042.4323 1762.93246
1042.5973 1748.33044
1042.7623 1748.51476
1042.9273 1745.95480
1043.0923 1757.73062
1043.2572 1760.08578
1043.4222 1746.71255
1043.5871 1732.47916
1043.7521 1741.71550
1043.9170 1750.89040
1044.0819 1742.69853
1044.2467 1733.46219
1044.4116 1742.78045
1044.5765 1728.79282
1044.7413 1735.71495
1044.9061 1736.98470
1045.0709 1729.48913
1045.2357 1723.98009
1045.4005 1716.56645
1045.5652 1716.44357
1045.7300 1708.78417
1045.8947 1705.77365
1046.0594 1703.78712
1046.2241 1711.54892
1046.3888 1719.18785
1046.5535 1717.67235
1046.7181 1718.00003
1046.8828 1703.29561
1047.0474 1702.78362
1047.2120 1693.21960
1047.3766 1702.78362
1047.5412 1690.70060
1047.7057 1697.21314
1047.8703 1685.43732
1048.0348 1705.56885
1048.1993 1695.47237
1048.3639 1691.90890
1048.5283 1675.64803
1048.6928 1685.23253
1048.8573 1675.50467
1049.0217 1682.30393
1049.1861 1671.65449
1049.3506 1672.26888
1049.5150 1676.87681
1049.6793 1673.51814
1049.8437 1669.72940
1050.0081 1677.16353
1050.1724 1673.33383
1050.3367 1679.62109
1050.5010 1667.14896
1050.6653 1662.66391
1050.8296 1658.09694
1050.9939 1661.23033
1051.1581 1649.86410
1051.3224 1666.16594
1051.4866 1657.03200
1051.6508 1650.86761
1051.8150 1647.83662
1051.9791 1646.44400
1052.1433 1638.23164
1052.3074 1647.93901
1052.4716 1637.94493
1052.6357 1641.75415
1052.7998 1638.76411
1052.9639 1637.14622
1053.1279 1626.80398
1053.2920 1630.42888
1053.4560 1619.28793
1053.6201 1642.59382
1053.7841 1617.17852
1053.9481 1615.54015
1054.1120 1619.63609
1054.2760 1619.77944
1054.4399 1620.76247
1054.6039 1626.68110
1054.7678 1606.40621
1054.9317 1612.77539
1055.0956 1615.60159
1055.2595 1616.68701
1055.4233 1605.09551
1055.5872 1606.42669
1055.7510 1596.24828
1055.9148 1608.67945
1056.0786 1590.92356
1056.2424 1614.94624
1056.4062 1592.29570
1056.5699 1600.89717
1056.7336 1593.27873
1056.8974 1595.59293
1057.0611 1588.75272
1057.2248 1586.88907
1057.3885 1588.77320
1057.5521 1584.43150
1057.7158 1578.24664
1057.8794 1593.48353
1058.0430 1593.19681
1058.2066 1584.75918
1058.3702 1573.24959
1058.5338 1584.47246
1058.6973 1578.88151
1058.8609 1580.02837
1059.0244 1568.15015
1059.1879 1577.50937
1059.3514 1566.26602
1059.5149 1573.14720
1059.6784 1568.45735
1059.8418 1565.69259
1060.0053 1556.02618
1060.1687 1560.16307
1060.3321 1543.88172
1060.4955 1556.53817
1060.6589 1549.39076
1060.8222 1551.11105
1060.9856 1553.58909
1061.1489 1548.65349
1061.3122 1549.47268
1061.4755 1553.85533
1061.6388 1544.61899
1061.8021 1552.83135
1061.9654 1544.78283
1062.1286 1541.40368
1062.2918 1540.99409
1062.4550 1544.45515
1062.6182 1530.77472
1062.7814 1541.13744
1062.9446 1541.95663
1063.1077 1529.01347
1063.2709 1521.23119
1063.4340 1527.17030
1063.5971 1522.33709
1063.7602 1521.64078
1063.9233 1514.39097
1064.0863 1520.57584
1064.2494 1512.83452
1064.4124 1521.21071
1064.5754 1512.11773
1064.7384 1512.79356
1064.9014 1508.77954
1065.0644 1512.36348
1065.2274 1503.74153
1065.3903 1505.66662
1065.5532 1495.71350
1065.7162 1499.70704
1065.8790 1495.11959
1066.0419 1500.17807
1066.2048 1496.51220
1066.3677 1493.60409
1066.5305 1489.52863
1066.6933 1496.22549
1066.8561 1484.16295
1067.0189 1482.93417
1067.1817 1487.31682
1067.3445 1477.32274
1067.5072 1478.87919
1067.6699 1478.75632
1067.8327 1472.71481
1067.9954 1478.28528
1068.1580 1474.00503
1068.3207 1481.80779
1068.4834 1466.96002
1068.6460 1478.71536
1068.8086 1471.09691
1068.9713 1475.56148
1069.1339 1458.95246
1069.2964 1466.20227
1069.4590 1447.21760
1069.6216 1464.68677
1069.7841 1449.69564
1069.9466 1451.78457
1070.1091 1451.21114
1070.2716 1453.15671
1070.4341 1451.19066
1070.5966 1446.41889
1070.7590 1444.12516
1070.9214 1456.69969
1071.0839 1444.98531
1071.2463 1447.95487
1071.4086 1443.67461
1071.5710 1432.67702
1071.7334 1430.05562
1071.8957 1438.00174
1072.0580 1430.89529
1072.2204 1435.50322
1072.3827 1426.28736
1072.5449 1426.47167
1072.7072 1423.37924
1072.8695 1417.15342
1073.0317 1415.67888
1073.1939 1415.18737
1073.3561 1409.47353
1073.5183 1433.31189
1073.6805 1398.74218
1073.8427 1412.75028
1074.0048 1412.03349
1074.1669 1414.02002
1074.3291 1411.43958
1074.4912 1410.14936
1074.6532 1397.47244
1074.8153 1405.99199
1074.9774 1390.75510
1075.1394 1400.31911
1075.3014 1406.01247
1075.4635 1404.51745
1075.6255 1389.89495
1075.7874 1396.34605
1075.9494 1377.19755
1076.1114 1387.60123
1076.2733 1380.16710
1076.4352 1389.64920
1076.5971 1376.70603
1076.7590 1384.26304
1076.9209 1369.41526
1077.0828 1382.27651
1077.2446 1377.56618
1077.4064 1370.88980
1077.5683 1363.04608
1077.7301 1369.31287
1077.8918 1367.28538
1078.0536 1365.66748
1078.2154 1363.55807
1078.3771 1366.44571
1078.5388 1360.01509
1078.7006 1366.46619
1078.8623 1350.16436
1079.0239 1357.27081
1079.1856 1344.65532
1079.3473 1359.46214
1079.5089 1355.42764
1079.6705 1356.53354
1079.8321 1345.37211
1079.9937 1354.48557
1080.1553 1335.15275
1080.3169 1345.53595
1080.4784 1341.48097
1080.6399 1344.38909
1080.8014 1336.01289
1080.9629 1336.81160
1081.1244 1337.40551
1081.2859 1339.96547
1081.4474 1328.21013
1081.6088 1332.87950
1081.7702 1330.93393
1081.9316 1330.09426
1082.0930 1327.61622
1082.2544 1329.33652
1082.4158 1315.61513
1082.5771 1325.67065
1082.7385 1321.94335
1082.8998 1314.44778
1083.0611 1320.44833
1083.2224 1319.03523
1083.3837 1310.49520
1083.5449 1321.20608
1083.7062 1306.31735
1083.8674 1303.96218
1084.0286 1306.09207
1084.1898 1308.36532
1084.3510 1301.07455
1084.5122 1304.61753
1084.6734 1287.72179
1084.8345 1306.54262
1084.9956 1291.69485
1085.1567 1293.08747
1085.3178 1300.86975
1085.4789 1295.87271
1085.6400 1286.65685
1085.8010 1290.99854
1085.9621 1289.19633
1086.1231 1283.72825
1086.2841 1266.07476
1086.4451 1291.10094
1086.6061 1272.97642
1086.7670 1289.44208
1086.9280 1277.74818
1087.0889 1281.61884
1087.2498 1280.06239
1087.4107 1277.44099
1087.5716 1271.52236
1087.7325 1265.31701
1087.8933 1256.12163
1088.0542 1289.17585
1088.2150 1269.02384
1088.3758 1269.12623
1088.5366 1260.75004
1088.6974 1275.16774
1088.8582 1263.67864
1089.0189 1265.99284
1089.1796 1262.04026
1089.3404 1272.66922
1089.5011 1261.56923
1089.6618 1272.50538
1089.8224 1262.18362
1089.9831 1263.74008
1090.1438 1258.88639
1090.3044 1277.91202
1090.4650 1265.31701
1090.6256 1264.29303
1090.7862 1259.78750
1090.9468 1262.69561
1091.1073 1258.21056
1091.2679 1260.38141
1091.4284 1262.98233
1091.5889 1259.52126
1091.7494 1258.35392
1091.9099 1253.43879
1092.0703 1265.17365
1092.2308 1265.72661
1092.3912 1256.83842
1092.5516 1262.20410
1092.7121 1247.23345
1092.8724 1257.39137
1093.0328 1246.41426
1093.1932 1265.64469
1093.3535 1256.14211
1093.5139 1266.64819
1093.6742 1256.44931
1093.8345 1255.20005
1093.9948 1256.71554
1094.1550 1258.57920
1094.3153 1252.39433
1094.4755 1260.27901
1094.6358 1257.67809
1094.7960 1255.99875
1094.9562 1250.75595
1095.1163 1262.73657
1095.2765 1244.91924
1095.4367 1250.57164
1095.5968 1247.17201
1095.7569 1259.86942
1095.9170 1251.51370
1096.0771 1260.87292
1096.2372 1251.02219
1096.3973 1256.85890
1096.5573 1248.07312
1096.7173 1258.29248
1096.8773 1252.31241
1097.0374 1257.24802
1097.1973 1244.79637
1097.3573 1262.04026
1097.5173 1247.31537
1097.6772 1255.42532
1097.8371 1244.50965
1097.9970 1248.40079
1098.1569 1243.40375
1098.3168 1255.91684
1098.4767 1241.02810
1098.6365 1260.36093
1098.7964 1258.74303
1098.9562 1261.18012
1099.1160 1244.40725
1099.2758 1256.51075
1099.4356 1244.57109
1099.5953 1258.16960
1099.7551 1247.25393
1099.9148 1259.76702
1100.0745 1252.33289
1100.2342 1252.84488
1100.3939 1253.27496
1100.5536 1258.78399
1100.7132 1256.87938
1100.8729 1256.40835
1101.0325 1244.67349
1101.1921 1254.74949
1101.3517 1248.31887
1101.5113 1251.71850
1101.6709 1249.42477
1101.8304 1249.11758
1101.9899 1238.48862
1102.1495 1258.19008
1102.3090 1247.27441
1102.4685 1256.38787
1102.6279 1244.05910
1102.7874 1250.69452
1102.9468 1250.40780
1103.1063 1250.32588
1103.2657 1246.16850
1103.4251 1254.95429
1103.5845 1242.56408
1103.7438 1258.31296
1103.9032 1246.20946
1104.0625 1250.36684
1104.2219 1246.88529
1104.3812 1249.32238
1104.5405 1245.47220
1104.6997 1250.81739
1104.8590 1252.39433
1105.0183 1260.44285
1105.1775 1249.65005
1105.3367 1253.43879
1105.4959 1247.06961
1105.6551 1262.38842
1105.8143 1244.44821
1105.9735 1254.97477
1106.1326 1245.45172
1106.2917 1257.53473
1106.4508 1246.80337
1106.6099 1257.96480
1106.7690 1242.58456
1106.9281 1259.86942
1107.0872 1242.68696
1107.2462 1252.12809
1107.4052 1249.77293
1107.5642 1245.77939
1107.7232 1253.39783
1107.8822 1255.91684
1108.0412 1246.96721
1108.2001 1249.15854
1108.3591 1246.20946
1108.5180 1256.12163
1108.6769 1244.36629
1108.8358 1256.24451
1108.9947 1245.41076
1109.1535 1251.34987
1109.3124 1248.25743
1109.4712 1255.09765
1109.6300 1249.83437
1109.7888 1255.50724
1109.9476 1246.57810
1110.1064 1263.04377
1110.2651 1249.65005
1110.4239 1260.23805
1110.5826 1247.88880
1110.7413 1253.72551
1110.9000 1249.99821
1111.0587 1253.27496
1111.2173 1248.31887
1111.3760 1257.78049
1111.5346 1261.61019
1111.6932 1262.79801
1111.8518 1251.67754
1112.0104 1250.26444
1112.1690 1236.09250
1112.3276 1255.60964
1112.4861 1245.73843
1112.6446 1254.42182
1112.8032 1252.92680
1112.9617 1253.45927
1113.1201 1250.63308
1113.2786 1263.04377
1113.4371 1253.95079
1113.5955 1252.84488
1113.7539 1241.41722
1113.9123 1254.93381
1114.0707 1252.12809
1114.2291 1259.13215
1114.3875 1249.52717
1114.5458 1249.38382
1114.7042 1242.58456
1114.8625 1253.41831
1115.0208 1247.70448
1115.1791 1252.35337
1115.3374 1250.51020
1115.4956 1246.84433
1115.6539 1242.44120
1115.8121 1257.00226
1115.9703 1236.85025
1116.1285 1250.53068
1116.2867 1247.52016
1116.4449 1260.85244
1116.6030 1253.62311
1116.7612 1259.54174
1116.9193 1242.21592
1117.0774 1258.33344
1117.2355 1237.87423
1117.3936 1255.83492
1117.5516 1244.67349
1117.7097 1247.27441
1117.8677 1246.63954
1118.0257 1261.58971
1118.1837 1252.84488
1118.3417 1259.02975
1118.4997 1258.53824
1118.6577 1252.49673
1118.8156 1245.30836
1118.9735 1245.00116
1119.1315 1244.67349
1119.2894 1258.10816
1119.4472 1253.11112
1119.6051 1259.07071
1119.7630 1249.56813
1119.9208 1254.44230
1120.0786 1245.41076
1120.2364 1258.74303
1120.3942 1247.88880
1120.5520 1256.18307
1120.7098 1255.50724
1120.8675 1247.78640
1121.0253 1251.84138
1121.1830 1258.62015
1121.3407 1252.25097
1121.4984 1259.43934
1121.6560 1255.50724
