# Averages = 100
# wavelength [µm]	intensity
446.8250 14.33578
447.0374 36746.70328
447.2498 1227.57295
447.4621 1226.24177
447.6745 1230.74730
447.8868 1238.52958
448.0992 1240.74139
448.3115 1236.42017
448.5238 1247.27441
448.7360 1235.37571
448.9483 1250.73547
449.1606 1244.50965
449.3728 1263.92439
449.5850 1234.55652
449.7972 1246.00467
450.0094 1239.71740
450.2216 1252.98824
450.4337 1247.45872
450.6459 1748.49428
450.8580 2126.24212
451.0701 2157.10500
451.2822 2179.77602
451.4943 2175.20905
451.7064 2145.45206
451.9184 2149.03601
452.1305 2247.01083
452.3425 2338.80079
452.5545 2247.83002
452.7665 2268.18683
452.9785 2370.99486
453.1905 2386.57990
453.4024 2343.75688
453.6143 2465.63150
453.8263 2446.60587
454.0382 2648.39223
454.2501 2437.94296
454.4619 2413.51069
454.6738 2546.85394
454.8856 2680.77061
455.0975 2480.45879
455.3093 2472.12356
455.5211 2543.02424
455.7329 2515.56097
455.9446 2570.15982
456.1564 2576.71332
456.3681 2676.34700
456.5798 2784.68455
456.7916 2709.05306
457.0033 2689.31064
457.2149 2651.01363
457.4266 2704.40417
457.6382 2745.85506
457.8499 2705.57152
458.0615 2825.54152
458.2731 2735.57426
458.4847 2855.05275
458.6963 2947.94862
458.9078 2972.81096
459.1194 3152.56117
459.3309 3165.38146
459.5424 3007.33971
459.7539 2899.49368
459.9654 2915.57023
460.1769 2959.27388
460.3883 2947.47758
460.5998 2804.26313
460.8112 2801.90797
461.0226 2862.58928
461.2340 2946.80175
461.4454 2908.66858
461.6567 2889.64295
461.8681 2893.55457
462.0794 2846.75848
462.2907 2980.90043
462.5020 3236.83509
462.7133 3331.63556
462.9246 3093.27248
463.1359 2954.35876
463.3471 2826.46311
463.5583 2888.51656
463.7696 3305.76972
463.9808 3136.25934
464.1919 3078.32231
464.4031 3041.17215
464.6143 3082.27489
464.8254 2990.32109
465.0365 2945.16338
465.2476 3227.23012
465.4587 3396.47425
465.6698 2979.01630
465.8809 3039.00131
466.0919 3018.99265
466.3030 3090.38484
466.5140 3120.12135
466.7250 3036.58470
466.9360 3173.88053
467.1469 3101.40292
467.3579 2892.30531
467.5688 2879.36214
467.7798 3133.90418
467.9907 3251.94910
468.2016 3152.70453
468.4125 3099.49830
468.6233 2948.78828
468.8342 2981.24859
469.0450 3159.19659
469.2559 3263.49964
469.4667 3209.96574
469.6775 2951.40968
469.8882 3120.94054
470.0990 3091.38835
470.3098 3369.52298
470.5205 3201.30283
470.7312 3275.02971
470.9419 3499.56900
471.1526 3389.67500
471.3633 3101.21860
471.5739 3132.53204
471.7846 3114.67375
471.9952 3045.80056
472.2058 3170.62426
472.4164 3136.48462
472.6270 3108.12025
472.8376 3257.84725
473.0481 3436.79876
473.2587 3517.85736
473.4692 3436.61444
473.6797 3316.29628
473.8902 3062.26623
474.1007 3053.84908
474.3111 3079.63301
474.5216 2992.73769
474.7320 3121.92356
474.9424 3291.12674
475.1528 3360.79864
475.3632 3201.75338
475.5736 3174.20820
475.7840 3185.02148
475.9943 3213.26297
476.2046 3238.06387
476.4149 3305.25772
476.6252 3330.32486
476.8355 3446.56757
477.0458 3527.07322
477.2561 3515.78891
477.4663 3348.81802
477.6765 3377.36670
477.8867 3384.08404
478.0969 3364.48498
478.3071 3356.86654
478.5173 3469.09522
478.7274 3443.06554
478.9375 3495.02251
479.1477 3457.83140
479.3578 3592.99733
479.5679 3552.61139
479.7779 3596.33552
479.9880 3583.94531
480.1980 3620.76779
480.4081 3641.39084
480.6181 3517.48873
480.8281 3625.02757
481.0381 3570.03960
481.2480 3560.10696
481.4580 3630.88476
481.6679 3593.12021
481.8778 3548.18778
482.0877 3571.20695
482.2976 3471.42991
482.5075 3564.89920
482.7174 3643.29545
482.9272 3716.20313
483.1371 3581.77447
483.3469 3626.07203
483.5567 3766.19405
483.7665 3633.83383
483.9762 3693.32732
484.1860 3848.13328
484.3957 3832.54824
484.6055 3682.32973
484.8152 3770.16711
485.0249 3888.06867
485.2346 3871.13197
485.4442 3870.92717
485.6539 3897.40741
485.8635 3874.44968
486.0732 3752.77986
486.2828 3791.89606
486.4924 3791.95750
486.7019 3910.71921
486.9115 3857.65634
487.1210 3867.13843
487.3306 3991.79829
487.5401 3968.75864
487.7496 4040.41707
487.9591 4081.47884
488.1686 4035.74770
488.3780 3960.71012
488.5875 4067.24546
488.7969 4161.71826
489.0063 4133.62013
489.2157 4195.36638
489.4251 4111.31775
489.6345 4090.16223
489.8438 4209.39497
490.0531 4021.10472
490.2625 4111.23583
490.4718 4191.49572
490.6811 4265.09972
490.8903 4277.48993
491.0996 4310.56462
491.3089 4329.99985
491.5181 4370.87730
491.7273 4377.22601
491.9365 4370.63155
492.1457 4450.25657
492.3549 4467.56191
492.5640 4386.66714
492.7732 4443.37540
492.9823 4506.39140
493.1914 4628.63465
493.4005 4584.82860
493.6096 4553.12604
493.8187 4518.84305
494.0277 4624.19056
494.2368 4616.30588
494.4458 4661.17688
494.6548 4713.91207
494.8638 4780.47105
495.0728 4740.24895
495.2817 4759.41794
495.4907 4784.40315
495.6996 4827.57434
495.9085 4830.35957
496.1174 4908.40766
496.3263 4897.00048
496.5352 4919.65101
496.7440 5009.37252
496.9529 5053.62913
497.1617 4990.12162
497.3705 5016.43801
497.5793 5133.09031
497.7881 5042.34482
497.9969 5145.84916
498.2056 5199.26018
498.4144 5233.01071
498.6231 5271.79924
498.8318 5309.58426
499.0405 5315.58481
499.2492 5281.93668
499.4578 5353.96374
499.6665 5350.93275
499.8751 5503.93650
500.0837 5489.74407
500.2923 5513.93058
500.5009 5529.22891
500.7095 5665.21403
500.9180 5603.42682
501.1266 5677.64520
501.3351 5678.48487
501.5436 5791.67610
501.7521 5761.16137
501.9606 5833.16795
502.1691 5875.76570
502.3775 5846.17255
502.5860 5909.10663
502.7944 5955.90272
503.0028 6025.69749
503.2112 6022.72794
503.4196 6079.23140
503.6279 6142.80035
503.8363 6086.52217
504.0446 6243.25321
504.2529 6217.69456
504.4612 6288.22661
504.6695 6369.77672
504.8778 6376.94461
505.0860 6407.76654
505.2943 6397.85438
505.5025 6494.98953
505.7107 6520.28195
505.9189 6593.39443
506.1271 6642.52520
506.3353 6630.87226
506.5434 6630.58554
506.7516 6731.32513
506.9597 6786.72268
507.1678 6858.19679
507.3759 6832.45382
507.5840 6889.38735
507.7920 6964.15869
508.0001 6957.44136
508.2081 7084.14918
508.4161 7058.36526
508.6241 7232.58596
508.8321 7207.00683
509.0401 7192.32289
509.2480 7317.20803
509.4560 7295.86819
509.6639 7399.24965
509.8718 7419.36071
510.0797 7528.98848
510.2876 7579.65522
510.4955 7649.32712
510.7033 7706.17873
510.9112 7728.78831
511.1190 7837.86312
511.3268 7804.97274
511.5346 7892.11381
511.7424 7910.32026
511.9501 8031.58049
512.1579 8045.24044
512.3656 8088.94409
512.5733 8096.70589
512.7810 8218.08900
512.9887 8301.13413
513.1964 8343.89572
513.4040 8391.24476
513.6117 8438.02036
513.8193 8549.20459
514.0269 8569.21324
514.2345 8676.52680
514.4421 8656.72295
514.6497 8627.78515
514.8572 8817.24274
515.0647 8867.27461
515.2723 8931.33508
515.4798 9011.06250
515.6873 9101.68512
515.8947 9149.56663
516.1022 9116.10282
516.3097 9219.52524
516.5171 9335.27643
516.7245 9403.88339
516.9319 9479.98590
517.1393 9520.33089
517.3467 9506.67094
517.5540 9529.52627
517.7614 9769.36389
517.9687 9781.75410
518.1760 9805.83821
518.3833 9967.40247
518.5906 10005.78140
518.7978 10157.08533
519.0051 10111.98906
519.2123 10294.11492
519.4196 10107.95456
519.6268 10288.99500
519.8340 10358.64642
520.0411 10408.51446
520.2483 10643.84655
520.4554 10610.87425
520.6626 10894.31312
520.8697 10859.31334
521.0768 11064.54029
521.2839 11001.99532
521.4909 11029.08995
521.6980 11197.22818
521.9050 11397.56048
522.1121 11287.25689
522.3191 11549.76552
522.5261 11564.08082
522.7331 11575.34465
522.9400 11785.89632
523.1470 11801.15369
523.3539 11909.47075
523.5608 11924.40045
523.7677 11947.01002
523.9746 12072.26379
524.1815 12353.16318
524.3884 12274.93078
524.5952 12276.95827
524.8020 12566.58201
525.0089 12499.79775
525.2157 12634.88176
525.4225 12709.42783
525.6292 12758.82483
525.8360 12846.66221
526.0427 12962.57724
526.2494 13125.02212
526.4562 13087.21662
526.6629 13230.57443
526.8695 13239.31926
527.0762 13500.78343
527.2829 13564.68006
527.4895 13689.36039
527.6961 13799.84831
527.9027 13929.07514
528.1093 13990.16604
528.3159 14027.56195
528.5224 13981.48266
528.7290 14359.90632
528.9355 14228.20145
529.1420 14613.50629
529.3485 14514.09789
529.5550 14722.58111
529.7615 14681.60125
529.9680 14846.83137
530.1744 14880.56142
530.3808 15092.60810
530.5872 15029.89930
530.7936 15202.17443
531.0000 15235.26960
531.2064 15450.61352
531.4127 15547.03189
531.6191 15653.13715
531.8254 15752.91419
532.0317 15978.39555
532.2380 15911.93896
532.4443 16027.03480
532.6505 15866.92461
532.8568 16183.92969
533.0630 16458.31654
533.2692 16390.24206
533.4754 16558.31886
533.6816 16736.28734
533.8878 16658.15733
534.0939 17017.26865
534.3001 17045.91974
534.5062 17138.87704
534.7123 17045.73542
534.9184 17197.71518
535.1245 17316.70216
535.3306 17333.49551
535.5366 17710.36272
535.7426 17705.73431
535.9487 17795.25102
536.1547 17768.97558
536.3607 18109.94190
536.5666 17958.37173
536.7726 18089.74893
536.9785 18337.83986
537.1845 18508.96813
537.3904 18392.56159
537.5963 18500.05947
537.8022 18677.59788
538.0080 18867.66986
538.2139 18939.08253
538.4197 19074.67854
538.6256 19061.44866
538.8314 19103.96449
539.0372 19246.09352
539.2430 19616.42771
539.4487 19433.62602
539.6545 19812.37736
539.8602 19694.33244
540.0659 19932.34737
540.2716 20312.14318
540.4773 20410.69143
540.6830 20488.30945
540.8887 20638.05692
541.0943 20387.50843
541.2999 20509.56736
541.5056 20556.58873
541.7112 20854.77298
541.9167 20710.80077
542.1223 20742.35997
542.3279 21177.67621
542.5334 21261.45861
542.7389 21477.90843
542.9444 21566.46260
543.1499 21636.93320
543.3554 21545.73715
543.5609 21939.78682
543.7663 21980.95099
543.9718 21837.77750
544.1772 22042.14430
544.3826 22071.71697
544.5880 22688.11460
544.7934 22516.14667
544.9987 22610.76282
545.2041 22960.57636
545.4094 22936.00074
545.6147 22944.84796
545.8200 23296.60708
546.0253 23255.97538
546.2306 23537.42772
546.4358 23358.59909
546.6411 23698.39807
546.8463 23558.60372
547.0515 23830.38965
547.2567 23989.49634
547.4619 24023.63598
547.6670 24164.10616
547.8722 24281.78244
548.0773 24607.10228
548.2824 24625.18584
548.4876 24773.78646
548.6926 24841.61518
548.8977 24949.46122
549.1028 25100.31459
549.3078 25283.09580
549.5129 25295.77273
549.7179 25439.04862
549.9229 25587.91547
550.1279 25506.52920
550.3328 25870.22797
550.5378 25580.07175
550.7427 25909.75376
550.9476 26080.45196
551.1526 25503.96923
551.3575 26143.61131
551.5623 26217.95258
551.7672 26128.72258
551.9720 26236.60957
552.1769 26403.39615
552.3817 26614.21405
552.5865 26477.61454
552.7913 26736.47779
552.9961 26625.12973
553.2008 26803.20061
553.4056 27127.57838
553.6103 27030.48418
553.8150 27275.70796
554.0197 27363.29958
554.2244 27234.44139
554.4291 27304.66624
554.6337 27743.44354
554.8384 27532.01125
555.0430 27755.26032
555.2476 27466.08713
555.4522 27506.67788
555.6568 27914.36701
555.8613 28034.19367
556.0659 28168.68377
556.2704 27891.06113
556.4750 28270.77502
556.6795 28517.04326
556.8839 28181.97509
557.0884 28679.11950
557.2929 28531.74767
557.4973 28375.34430
557.7018 28529.96594
557.9062 28704.33000
558.1106 28725.87463
558.3150 28556.93769
558.5193 28979.55652
558.7237 29083.90053
558.9280 28812.15555
559.1323 29023.81313
559.3367 28838.06236
559.5410 29120.76397
559.7452 28847.29870
559.9495 29234.16000
560.1537 29209.80965
560.3580 29117.38482
560.5622 29320.07228
560.7664 29567.85602
560.9706 29627.86151
561.1748 29738.90237
561.3789 29666.01517
561.5831 29712.50406
561.7872 29623.70413
561.9913 29933.07029
562.1954 29836.54952
562.3995 29997.66323
562.6036 30016.79125
562.8076 29834.70635
563.0117 30072.37313
563.2157 29967.27137
563.4197 30142.70037
563.6237 30384.77028
563.8277 30084.16943
564.0316 29904.68544
564.2356 30328.94265
564.4395 30309.48695
564.6434 30528.04617
564.8473 30731.75762
565.0512 30687.21430
565.2551 30655.02023
565.4590 30714.49325
565.6628 30920.21171
565.8666 31118.12741
566.0705 30900.91984
566.2743 30899.22003
566.4780 30989.14634
566.6818 30864.81415
566.8856 31435.91072
567.0893 31010.13802
567.2930 31214.99633
567.4967 30903.07021
567.7004 31091.29902
567.9041 31271.99130
568.1078 31239.85867
568.3114 31484.14038
568.5151 31424.15538
568.7187 31135.04363
568.9223 31329.17059
569.1259 31493.68392
569.3295 31838.37754
569.5330 31791.97057
569.7366 31829.18216
569.9401 31887.63119
570.1436 31960.39552
570.3471 32057.53067
570.5506 32024.94749
570.7541 31940.18206
570.9575 31888.12270
571.1609 31609.31223
571.3644 32174.73592
571.5678 32144.26215
571.7712 32585.51750
571.9746 32396.61286
572.1779 32160.76878
572.3813 32038.54600
572.5846 32274.06241
572.7879 32177.33685
572.9912 32820.56287
573.1945 32687.44490
573.3978 32305.21201
573.6010 32617.75252
573.8043 33157.57661
574.0075 32341.97305
574.2107 32482.54563
574.4139 32441.27906
574.6171 32547.13856
574.8203 32430.48626
575.0234 32889.72278
575.2266 32303.28692
575.4297 32421.59808
575.6328 32644.80619
575.8359 33009.79518
576.0390 32355.87876
576.2420 32457.08938
576.4451 32209.51043
576.6481 32584.28872
576.8512 33040.69903
577.0542 32318.09374
577.2571 32746.20112
577.4601 32816.93797
577.6631 32695.00191
577.8660 32563.07176
578.0689 32427.98774
578.2719 32618.69459
578.4748 32393.78666
578.6776 32371.13613
578.8805 32523.30021
579.0834 31995.78442
579.2862 32512.89653
579.4890 32886.32315
579.6918 32687.21962
579.8946 32360.05662
580.0974 32751.25961
580.3002 32439.33349
580.5029 32347.07250
580.7057 32723.14100
580.9084 32223.41614
581.1111 32802.06971
581.3138 32561.53578
581.5164 32340.12988
581.7191 32147.86658
581.9217 32311.11016
582.1244 32322.92694
582.3270 32331.36457
582.5296 32307.01423
582.7322 32556.82545
582.9347 32424.36284
583.1373 32163.02154
583.3398 32354.48614
583.5424 32134.16566
583.7449 32063.69506
583.9474 31961.25566
584.1498 31878.62012
584.3523 32349.44814
584.5548 31997.89382
584.7572 32201.44144
584.9596 32416.53960
585.1620 33008.09537
585.3644 32113.50166
585.5668 32163.02154
585.7691 32451.08883
585.9715 32273.63234
586.1738 32549.80092
586.3761 32510.07033
586.5784 32680.25653
586.7807 32650.37667
586.9830 32659.59253
587.1852 32633.05085
587.3875 32258.62073
587.5897 32899.61446
587.7919 32625.24809
587.9941 32262.90098
588.1963 32400.42208
588.3984 32753.96293
588.6006 32218.86965
588.8027 32800.57470
589.0048 32468.45560
589.2069 32561.51530
589.4090 32607.34884
589.6111 32810.20015
589.8131 32739.60667
590.0152 32948.72475
590.2172 32858.81893
590.4192 33167.81645
590.6212 32859.84291
590.8232 32662.09105
591.0252 33055.81304
591.2271 33138.18234
591.4291 33083.68590
591.6310 32940.49192
591.8329 32914.13456
592.0348 33312.01393
592.2367 33321.61890
592.4385 33593.75299
592.6404 33759.47462
592.8422 33835.88434
593.0440 33919.11379
593.2458 34205.56318
593.4476 34342.28557
593.6494 34390.53571
593.8512 34486.25777
594.0529 34844.48847
594.2546 34717.10481
594.4563 34629.75894
594.6580 34398.05176
594.8597 34402.94640
595.0614 34452.85540
595.2630 34730.84668
595.4647 34676.78031
595.6663 34414.53791
595.8679 34791.75327
596.0695 35231.00161
596.2711 34955.63173
596.4727 35110.76536
596.6742 35408.17139
596.8757 35609.03616
597.0773 35449.11028
597.2788 35049.53110
597.4802 35382.73561
597.6817 35884.83611
597.8832 35691.40546
598.0846 35965.09601
598.2860 35855.69352
598.4875 35542.53862
598.6889 36110.01028
598.8902 36227.70704
599.0916 36272.04556
599.2930 35920.40933
599.4943 36418.80300
599.6956 36432.23768
599.8969 36262.44059
600.0982 35869.53779
600.2995 36004.23269
600.5008 36854.48788
600.7020 36217.54912
600.9032 36758.11047
601.1045 36556.24219
601.3057 36214.80484
601.5068 36966.73704
601.7080 36999.46358
601.9092 36687.84466
602.1103 37220.78757
602.3115 37065.73585
602.5126 37234.97999
602.7137 37103.27512
602.9147 37139.44225
603.1158 37392.07967
603.3169 37697.80045
603.5179 37493.53605
603.7189 37369.47010
603.9199 37553.70537
604.1209 37499.16796
604.3219 37454.52224
604.5229 37519.56573
604.7238 37792.37565
604.9247 37771.30205
605.1257 37954.55429
605.3266 38321.30453
605.5275 37847.22025
605.7283 37984.67991
605.9292 38155.39859
606.1300 37562.83931
606.3309 37775.52086
606.5317 38175.44820
606.7325 38317.02428
606.9332 38262.91695
607.1340 38504.51582
607.3348 38351.10248
607.5355 37858.19736
607.7362 38888.77620
607.9369 38149.97147
608.1376 38425.54614
608.3383 38187.10114
608.5390 39063.40649
608.7396 38647.91459
608.9402 39267.28178
609.1409 39206.90766
609.3415 38924.12414
609.5421 38815.68419
609.7426 39149.52358
609.9432 38597.98511
610.1437 38482.43872
610.3443 39290.21903
610.5448 39088.10499
610.7453 39427.43294
610.9457 39214.75138
611.1462 39326.32472
611.3467 39244.59029
611.5471 39572.20385
611.7475 39008.66429
611.9479 39797.72617
612.1483 39282.39579
612.3487 39870.34714
612.5491 39666.10321
612.7494 40404.25259
612.9497 39689.55246
613.1501 40066.70638
613.3504 39902.00873
613.5506 40609.52050
613.7509 40254.01360
613.9512 40089.86891
614.1514 40298.14733
614.3516 40709.44089
614.5519 40544.21077
614.7521 40756.35986
614.9522 40334.90837
615.1524 40342.93641
615.3526 40800.73934
615.5527 41351.25382
615.7528 40939.07963
615.9529 40928.28683
616.1530 41387.54383
616.3531 41393.03238
616.5532 41270.35905
616.7532 40922.96212
616.9532 41267.06183
617.1533 41049.40371
617.3533 41485.06810
617.5532 41078.09575
617.7532 41333.86657
617.9532 40466.03981
618.1531 41523.07840
618.3530 40953.19013
618.5530 41221.12589
618.7528 41403.72278
618.9527 41412.32425
619.1526 40988.21040
619.3524 41127.57467
619.5523 41372.94181
619.7521 41496.90536
619.9519 41478.69892
620.1517 41541.94019
620.3515 41892.73676
620.5512 42180.98836
620.7510 41936.74761
620.9507 41619.61965
621.1504 41644.99398
621.3501 41842.29529
621.5498 42041.05065
621.7495 42156.61753
621.9492 41760.43798
622.1488 41519.18726
622.3484 41468.66387
622.5480 41402.02297
622.7476 42150.30979
622.9472 41413.32775
623.1468 41694.88250
623.3463 42858.21067
623.5459 42516.73236
623.7454 42217.58556
623.9449 42176.03227
624.1444 42209.35273
624.3439 42577.92566
624.5433 42411.83540
624.7428 42157.82583
624.9422 42271.91817
625.1416 42372.45296
625.3410 42394.07951
625.5404 42266.08146
625.7398 42246.29808
625.9391 42536.08566
626.1385 42139.68083
626.3378 42279.27038
626.5371 42910.02427
626.7364 42264.99604
626.9357 42668.56876
627.1350 42649.52265
627.3342 42317.30116
627.5335 42132.88157
627.7327 42341.07808
627.9319 42345.23545
628.1311 43372.57850
628.3303 42648.64202
628.5294 42882.11046
628.7286 42934.12887
628.9277 43268.54168
629.1268 42952.02811
629.3259 43518.66011
629.5250 43548.49901
629.7241 43506.16750
629.9231 42678.87004
630.1222 43622.22589
630.3212 43436.12697
630.5202 42980.98639
630.7192 43581.57371
630.9182 42932.57241
631.1171 43128.19439
631.3161 42933.94455
631.5150 42872.32117
631.7140 43209.86738
631.9129 43295.45199
632.1118 43781.86505
632.3106 43636.47975
632.5095 43407.41445
632.7083 43301.55494
632.9072 43443.31534
633.1060 43573.75047
633.3048 43621.75485
633.5036 43062.70035
633.7023 43335.28499
633.9011 43825.73254
634.0998 43622.59452
634.2986 43904.29262
634.4973 43528.01933
634.6960 43723.53890
634.8947 43502.13300
635.0933 43871.46368
635.2920 43458.83894
635.4906 43036.52730
635.6892 43913.40608
635.8878 43862.84174
636.0864 43839.65873
636.2850 43607.72627
636.4836 43584.64566
636.6821 43665.13083
636.8806 43747.74589
637.0792 43731.95605
637.2777 43695.97324
637.4761 43732.54996
637.6746 43489.45607
637.8731 43895.67068
638.0715 43332.72502
638.2699 44092.93102
638.4683 43811.17148
638.6667 43053.42305
638.8651 43928.64297
639.0635 44103.88766
639.2618 44112.57105
639.4602 44017.05378
639.6585 43936.56861
639.8568 44131.69907
640.0551 44198.79053
640.2534 44087.54487
640.4516 43906.54539
640.6499 44080.17218
640.8481 44738.04118
641.0463 44552.43377
641.2445 44807.77452
641.4427 44615.42929
641.6409 44386.56878
641.8390 44579.65128
642.0372 44897.04548
642.2353 44788.91273
642.4334 44193.07670
642.6315 44504.85946
642.8296 44444.23958
643.0277 44252.24251
643.2257 44926.63862
643.4237 44951.17329
643.6218 44877.75361
643.8198 44511.24912
644.0178 44653.29623
644.2157 44635.94994
644.4137 44543.77087
644.6116 45309.30158
644.8096 45573.30524
645.0075 44374.87488
645.2054 45089.90269
645.4033 44931.98382
645.6011 44783.36273
645.7990 44858.44126
645.9968 45082.03849
646.1947 45010.64630
646.3925 45167.43879
646.5903 44976.87530
646.7881 45156.44120
646.9858 44917.54564
647.1836 44778.55000
647.3813 44630.25659
647.5790 45143.41612
647.7767 45701.52856
647.9744 44882.07482
648.1721 44871.50730
648.3698 45497.65327
648.5674 44718.01205
648.7650 45117.07924
648.9627 44731.11905
649.1603 45715.43427
649.3578 45352.75948
649.5554 45462.75588
649.7530 45880.82822
649.9505 44688.72609
650.1480 45486.73760
650.3455 45700.58649
650.5430 45045.07266
650.7405 45186.64874
650.9380 45010.68726
651.1354 45427.46938
651.3329 45019.67784
651.5303 45486.79904
651.7277 45526.79587
651.9251 45638.71736
652.1225 45440.71974
652.3198 45335.29031
652.5172 45542.03275
652.7145 45847.61017
652.9118 45543.22058
653.1091 45588.64452
653.3064 45943.98758
653.5037 45658.66457
653.7009 45270.98409
653.8982 45693.29573
654.0954 46161.46138
654.2926 46322.00165
654.4898 46139.67099
654.6870 46077.26939
654.8841 46682.25983
655.0813 46164.59477
655.2784 46200.33183
655.4755 46678.12294
655.6726 46923.61295
655.8697 46168.40400
656.0668 46521.71956
656.2639 46173.13480
656.4609 46246.39065
656.6579 46321.71494
656.8550 46538.02140
657.0520 46433.82075
657.2490 45803.00541
657.4459 46468.24710
657.6429 46595.65124
657.8398 46444.59306
658.0367 46804.17541
658.2337 46692.62256
658.4305 46976.08191
658.6274 46963.11827
658.8243 46856.99253
659.0211 47155.13582
659.2180 46989.92618
659.4148 47179.03561
659.6116 47392.80259
659.8084 47282.21228
660.0052 47681.70954
660.2019 47356.55355
660.3987 47119.70596
660.5954 47265.99237
660.7921 47234.82228
660.9888 46937.15002
661.1855 47271.05085
661.3822 47502.81947
661.5788 46895.84250
661.7755 47225.60642
661.9721 46794.91860
662.1687 47265.07078
662.3653 47178.42122
662.5619 47417.19390
662.7584 46814.31286
662.9550 47080.97887
663.1515 47520.78016
663.3480 47086.07831
663.5445 47673.16951
663.7410 47033.17928
663.9375 47187.96476
664.1340 47200.84648
664.3304 47499.80896
664.5268 47149.46295
664.7233 47659.98060
664.9197 47543.84029
665.1160 47533.19085
665.3124 47420.96216
665.5088 47481.39772
665.7051 47597.39467
665.9014 47519.67426
666.0977 47276.25269
666.2940 47312.99325
666.4903 47581.60483
666.6866 47645.68577
666.8828 47273.38553
667.0791 47345.39212
667.2753 47676.87634
667.4715 47486.33332
667.6677 47994.06574
667.8639 48285.49169
668.0600 47482.09403
668.2562 47745.91336
668.4523 47715.39863
668.6484 47758.05782
668.8445 47253.09016
669.0406 48318.60735
669.2367 48232.65410
669.4327 48371.32206
669.6287 48074.18227
669.8248 47976.37129
670.0208 48208.24231
670.2168 48057.34797
670.4128 48167.26245
670.6087 48128.33057
670.8047 48126.13924
671.0006 48864.35006
671.1965 47660.06251
671.3924 48322.99000
671.5883 47832.72676
671.7842 47953.59787
671.9801 47408.92011
672.1759 47851.38375
672.3717 47563.07071
672.5675 48287.90829
672.7633 48211.21186
672.9591 48458.68841
673.1549 48816.07943
673.3506 48205.80523
673.5464 47780.89267
673.7421 48377.52741
673.9378 48234.88638
674.1335 47972.41871
674.3292 48331.20235
674.5249 47781.13843
674.7205 47038.07393
674.9161 47439.43484
675.1118 47488.29937
675.3074 47501.61117
675.5030 47558.68806
675.6985 47998.38695
675.8941 47843.10996
676.0896 47950.58736
676.2852 48054.09170
676.4807 47903.95511
676.6762 48093.12599
676.8717 48432.10577
677.0671 48172.27998
677.2626 48773.60456
677.4580 48301.50681
677.6534 48380.31264
677.8489 47999.28806
678.0442 48036.52013
678.2396 47328.43493
678.4350 47659.36620
678.6303 47837.31421
678.8257 47619.79945
679.0210 47912.57706
679.2163 47593.31921
679.4116 47777.73880
679.6069 47544.14748
679.8021 47104.28475
679.9974 47113.80781
680.1926 47545.47866
680.3878 47414.18339
680.5830 47376.41884
680.7782 47422.45718
680.9734 47231.60697
681.1685 47177.39724
681.3636 47233.55254
681.5588 47213.03190
681.7539 47134.69709
681.9490 47126.89433
682.1441 47147.43546
682.3391 46784.53539
682.5342 47442.83447
682.7292 47456.88353
682.9242 47658.07598
683.1192 47364.45870
683.3142 47940.22464
683.5092 47841.63542
683.7041 47958.39012
683.8991 47812.92290
684.0940 47613.04115
684.2889 47146.45243
684.4838 47496.28645
684.6787 47149.83158
684.8736 46321.42822
685.0684 47261.52780
685.2633 46896.90744
685.4581 47032.56489
685.6529 47391.88101
685.8477 47657.62543
686.0425 47591.55796
686.2372 47203.69316
686.4320 47194.47730
686.6267 47157.85962
686.8214 46905.91850
687.0161 46832.33498
687.2108 46939.97622
687.4055 46738.72233
687.6002 47078.80802
687.7948 47031.43851
687.9894 47345.78123
688.1841 46971.61734
688.3787 47065.98774
688.5732 46701.14211
688.7678 46889.37091
688.9624 46671.42608
689.1569 46664.15579
689.3514 46485.18380
689.5459 46078.90776
689.7404 46293.24817
689.9349 46366.09442
690.1294 46425.60839
690.3238 46455.42682
690.5182 46602.79865
690.7127 46759.50922
690.9071 46529.46089
691.1015 46200.06559
691.2958 46456.26648
691.4902 46744.70240
691.6845 47597.82474
691.8789 46779.19020
692.0732 46720.49541
692.2675 46591.04331
692.4618 46836.34900
692.6560 46610.02798
692.8503 47114.62700
693.0445 46997.27839
693.2387 46279.01479
693.4329 46781.75016
693.6271 46678.43013
693.8213 46757.80940
694.0155 46951.50629
694.2096 46708.41240
694.4038 46367.38464
694.5979 46429.43809
694.7920 46376.12947
694.9861 46309.67288
695.1801 46197.44419
695.3742 46073.72640
695.5682 46099.18265
695.7623 45977.36947
695.9563 45789.14066
696.1503 46214.66761
696.3443 45516.92466
696.5382 46086.64908
696.7322 45945.66691
696.9261 46284.50334
697.1201 45796.10376
697.3140 46101.29206
697.5079 46306.70333
697.7017 45604.96683
697.8956 45694.01251
698.0894 45416.10315
698.2833 45879.61992
698.4771 45963.11561
698.6709 46362.83815
698.8647 45568.82018
699.0585 46304.94207
699.2522 45340.47167
699.4460 45726.16562
699.6397 45756.47556
699.8334 45566.38310
700.0271 45340.32831
700.2208 45584.46667
700.4144 45980.33903
700.6081 45821.02754
700.8017 45572.44509
700.9954 46099.85848
701.1890 45896.18799
701.3826 45168.52421
701.5761 45193.73471
701.7697 45412.33489
701.9632 45089.88221
702.1568 45441.14981
702.3503 45285.50419
702.5438 44901.38717
702.7373 44360.80534
702.9308 45314.89254
703.1242 45369.67570
703.3177 45053.08021
703.5111 45461.42470
703.7045 45474.20403
703.8979 45565.03144
704.0913 45444.67232
704.2847 45602.52975
704.4780 45797.53733
704.6713 44776.74779
704.8647 44984.59614
705.0580 44779.18487
705.2513 44158.79370
705.4445 44777.54650
705.6378 44874.37446
705.8311 44027.84658
706.0243 44122.68801
706.2175 44783.48561
706.4107 44607.40125
706.6039 44567.69114
706.7971 44505.61721
706.9902 44799.78744
707.1834 44694.87000
707.3765 44162.00901
707.5696 44279.02995
707.7627 44429.57613
707.9558 44446.71763
708.1489 43845.35208
708.3419 43342.28904
708.5349 43627.10005
708.7280 43538.03389
708.9210 44253.26650
709.1140 44051.66445
709.3069 43711.53780
709.4999 43550.09643
709.6929 43895.69115
709.8858 43532.17670
710.0787 43738.38668
710.2716 43061.90164
710.4645 43616.16390
710.6574 43635.76296
710.8502 43909.61734
711.0431 43426.87015
711.2359 43207.81941
711.4287 43206.38583
711.6215 43443.35630
711.8143 43307.51453
712.0071 43197.49765
712.1998 43103.12725
712.3925 43381.24140
712.5853 43546.81968
712.7780 43571.14955
712.9707 43275.89389
713.1633 43314.82578
713.3560 43361.27371
713.5487 43156.76355
713.7413 43299.28170
713.9339 43150.16909
714.1265 42947.78882
714.3191 43048.81512
714.5117 42493.65175
714.7042 42901.07465
714.8968 43083.24147
715.0893 43671.52050
715.2818 43547.76174
715.4743 43575.96227
715.6668 43153.89639
715.8592 43608.62737
716.0517 43203.53916
716.2441 43260.49317
716.4366 42920.59179
716.6290 43132.76136
716.8214 43109.20972
717.0137 43177.63235
717.2061 43081.31638
717.3984 42988.54340
717.5908 42596.37786
717.7831 42475.58866
717.9754 43135.23940
718.1677 42084.38567
718.3600 42705.53460
718.5522 42376.54890
718.7445 42378.33063
718.9367 42008.87707
719.1289 42253.07686
719.3211 41931.54577
719.5133 42018.97355
719.7054 41943.62878
719.8976 42328.54451
720.0897 42131.09984
720.2818 42101.48621
720.4740 42192.14979
720.6660 42303.90744
720.8581 42274.15046
721.0502 41981.45476
721.2422 41756.36252
721.4343 41931.30001
721.6263 42051.10618
721.8183 41937.60775
722.0103 42366.96440
722.2022 42065.15525
722.3942 42300.69213
722.5861 41970.92820
722.7781 42482.14216
722.9700 42014.83665
723.1619 41732.17601
723.3538 41595.47409
723.5456 41790.25640
723.7375 41573.29459
723.9293 41851.75690
724.1211 41481.38175
724.3129 41477.20390
724.5047 41018.52034
724.6965 41029.12882
724.8883 41239.04561
725.0800 41045.34873
725.2718 41440.95485
725.4635 41175.21043
725.6552 41083.87102
725.8469 41197.24657
726.0385 41521.89058
726.2302 41237.30484
726.4218 40472.49091
726.6135 40494.79329
726.8051 40304.55747
726.9967 40734.48755
727.1882 40957.01984
727.3798 41294.81180
727.5714 41031.89357
727.7629 41442.71610
727.9544 41408.47407
728.1459 40767.95136
728.3374 40589.12273
728.5289 41304.70349
728.7204 40793.65337
728.9118 41272.36606
729.1032 41571.94293
729.2946 41260.89744
729.4860 40553.40615
729.6774 40910.22375
729.8688 40844.93451
730.0602 40565.83732
730.2515 40882.26898
730.4428 41096.22027
730.6341 40807.33380
730.8254 40619.53507
731.0167 41062.16255
731.2080 41053.13101
731.3992 40900.00439
731.5905 40740.13995
731.7817 40754.49621
731.9729 40147.17107
732.1641 40549.02350
732.3553 40012.29185
732.5464 40456.66011
732.7376 40336.77202
732.9287 40399.35795
733.1198 40277.91340
733.3109 40405.41993
733.5020 40158.63970
733.6931 40693.15954
733.8841 40523.66965
734.0752 40855.56346
734.2662 40401.99983
734.4572 40259.27688
734.6482 39742.34909
734.8392 39768.33781
735.0302 39644.00563
735.2211 39456.73937
735.4120 39427.47390
735.6030 39955.19448
735.7939 39853.92243
735.9848 39892.23992
736.1756 39476.42035
736.3665 39680.07036
736.5574 39271.17292
736.7482 39271.66443
736.9390 39126.27913
737.1298 39447.60543
737.3206 39414.08018
737.5114 39742.94300
737.7021 39166.91083
737.8929 39144.46509
738.0836 39274.44967
738.2743 39560.50995
738.4650 39503.94505
738.6557 39156.03612
738.8463 38841.93915
739.0370 38727.84681
739.2276 38537.28332
739.4182 38633.94744
739.6088 39031.08954
739.7994 38697.55735
739.9900 38887.32214
740.1806 38795.53218
740.3711 38957.97706
740.5617 39291.05870
740.7522 39051.83547
740.9427 38968.87225
741.1332 38967.70491
741.3236 38456.96198
741.5141 38678.63412
741.7045 39019.41612
741.8949 39036.25043
742.0854 38839.37919
742.2758 38908.51861
742.4661 38385.99987
742.6565 38139.24011
742.8469 38405.37365
743.0372 38710.21380
743.2275 38316.16413
743.4178 38660.77583
743.6081 38645.78470
743.7984 38572.48790
743.9886 38559.99529
744.1789 38311.26949
744.3691 38099.24328
744.5593 38116.17998
744.7495 37801.42767
744.9397 38031.08688
745.1299 37722.15080
745.3200 37247.88219
745.5102 37585.55128
745.7003 37661.87908
745.8904 37773.53433
746.0805 37798.54003
746.2706 37664.35712
746.4607 37705.09122
746.6507 37660.85509
746.8408 37241.28773
747.0308 37693.99123
747.2208 37356.24022
747.4108 37458.00379
747.6007 37620.40771
747.7907 38020.51936
747.9806 37732.61592
748.1706 37768.57825
748.3605 37400.76306
748.5504 37406.51785
748.7403 37899.83257
748.9302 37328.46976
749.1200 37341.12621
749.3098 37333.67160
749.4997 37062.80726
749.6895 37195.61803
749.8793 37009.64199
750.0691 37482.37462
750.2588 37179.60292
750.4486 36970.42339
750.6383 37118.55297
750.8280 36554.91101
751.0177 36444.99652
751.2074 36570.39365
751.3971 36694.39816
751.5868 36631.87367
751.7764 36469.71551
751.9660 36199.07644
752.1557 36313.51693
752.3453 36528.41029
752.5348 36746.58040
752.7244 37059.03900
752.9140 37080.80890
753.1035 36721.36991
753.2930 36832.41077
753.4825 36519.44019
753.6720 36791.84051
753.8615 36754.05549
754.0510 36414.52275
754.2404 36343.00768
754.4299 36332.46064
754.6193 36289.22802
754.8087 36127.41801
754.9981 36170.07720
755.1875 35878.63077
755.3768 35728.33034
755.5662 35980.78345
755.7555 35898.86470
755.9448 35993.39894
756.1341 35891.16434
756.3234 35442.04479
756.5127 35471.98609
756.7019 35835.76678
756.8912 35848.75090
757.0804 35672.07264
757.2696 35785.40723
757.4588 35518.51594
757.6480 35315.09121
757.8371 34933.86182
758.0263 35019.91747
758.2154 35194.95736
758.4045 34927.88175
758.5936 34747.84482
758.7827 35118.65004
758.9718 35325.80208
759.1609 34958.08929
759.3499 34880.94231
759.5389 34354.77818
759.7280 34762.73355
759.9170 34891.73511
760.1059 34860.07351
760.2949 34723.37160
760.4839 35188.15810
760.6728 34922.33176
760.8617 34825.31948
761.0506 34435.07903
761.2395 34184.03902
761.4284 34547.12340
761.6173 34347.32357
761.8061 34365.36618
761.9950 34356.15032
762.1838 34084.11863
762.3726 34598.95749
762.5614 34151.37392
762.7502 34514.54022
762.9389 33791.50485
763.1277 33977.19418
763.3164 34373.02558
763.5051 34231.87957
763.6938 34471.18472
763.8825 34120.44960
764.0712 34843.66928
764.2598 34427.31723
764.4484 34575.46729
764.6371 34612.98608
764.8257 34309.31327
765.0143 34539.48448
765.2029 34163.23166
765.3914 34215.27055
765.5800 34494.18341
765.7685 33955.32188
765.9570 34021.86038
766.1455 33650.72748
766.3340 33257.90660
766.5225 33431.55387
766.7110 33319.75525
766.8994 33115.67517
767.0878 32903.75136
767.2762 33175.41442
767.4646 33103.91983
767.6530 33246.02838
767.8414 33338.82184
768.0298 33062.81709
768.2181 32868.91541
768.4064 32921.87588
768.5947 32985.85443
768.7830 32873.72814
768.9713 32814.58280
769.1596 32529.34171
769.3478 32444.90396
769.5360 32646.54697
769.7243 32479.39176
769.9125 32262.47091
770.1007 32071.29302
770.2888 32071.96885
770.4770 32199.47539
770.6651 32281.61941
770.8533 31925.76436
771.0414 31781.64880
771.2295 32034.10191
771.4176 32266.52588
771.6056 32331.58985
771.7937 32086.44799
771.9817 31768.11173
772.1698 32334.43653
772.3578 32258.88696
772.5458 31884.60019
772.7337 31364.08845
772.9217 31745.37928
773.1096 31566.55065
773.2976 31795.14492
773.4855 32092.71478
773.6734 31379.16150
773.8613 31404.14672
774.0492 31589.65173
774.2370 31374.90173
774.4249 31466.77361
774.6127 31689.14205
774.8005 31565.73146
774.9883 31513.87689
775.1761 31683.83782
775.3639 31223.53636
775.5516 31346.37352
775.7394 31063.50808
775.9271 31153.70063
776.1148 31091.54477
776.3025 30381.37065
776.4902 30566.44559
776.6778 30553.64578
776.8655 31006.39023
777.0531 31132.77038
777.2407 31030.33099
777.4283 30714.20653
777.6159 30919.14676
777.8035 30606.93393
777.9911 30419.62671
778.1786 30696.69640
778.3661 30235.22760
778.5536 30568.28876
778.7411 30586.59760
778.9286 30928.11687
779.1161 30652.84939
779.3036 30169.61068
779.4910 30238.07428
779.6784 30296.62570
779.8658 30531.60964
780.0532 29952.52599
780.2406 30269.30580
780.4280 30004.91303
780.6153 30190.74572
780.8026 30161.19353
780.9900 30348.19356
781.1773 29784.83831
781.3646 30190.88908
781.5518 29998.99440
781.7391 29833.70285
781.9263 29976.40531
782.1136 29864.46334
782.3008 29614.67259
782.4880 29714.67490
782.6752 29541.27339
782.8623 29455.48398
783.0495 29781.64348
783.2366 29192.66815
783.4237 29364.55417
783.6108 29653.13344
783.7979 29419.66500
783.9850 29466.95260
784.1721 29638.51095
784.3591 29173.74492
784.5462 29104.52357
784.7332 29167.51909
784.9202 29363.38682
785.1072 28873.20550
785.2941 28890.69516
785.4811 28660.97450
785.6681 28840.64280
785.8550 28861.45016
786.0419 28596.07437
786.2288 28462.87448
786.4157 28337.60024
786.6025 28433.83429
786.7894 28595.60334
786.9762 28515.89640
787.1631 27945.37326
787.3499 28228.99645
787.5367 28426.11345
787.7234 27974.37250
787.9102 28343.68270
788.0970 28407.62029
788.2837 28487.94162
788.4704 27915.61628
788.6571 27629.45360
788.8438 27606.63923
789.0305 27528.40682
789.2171 27470.87938
789.4038 27358.42542
789.5904 27649.21650
789.7770 27638.05507
789.9636 27646.61558
790.1502 27754.70737
790.3368 27638.05507
790.5233 27793.39350
790.7099 27478.53878
790.8964 26988.35746
791.0829 26879.26217
791.2694 26788.14804
791.4559 26897.09998
791.6423 26887.57692
791.8288 26955.24181
792.0152 27242.42847
792.2016 27236.30504
792.3880 27471.10466
792.5744 26931.09626
792.7608 26460.96455
792.9471 26572.02590
793.1335 27158.29791
793.3198 26795.17257
793.5061 26836.02955
793.6924 26406.75482
793.8787 26282.09496
794.0650 26250.16713
794.2512 26625.04781
794.4375 26681.42839
794.6237 26795.84840
794.8099 26737.97280
794.9961 26254.44738
795.1823 26213.24225
795.3684 26364.87386
795.5546 25978.01256
795.7407 25900.70174
795.9268 25726.05097
796.1129 26080.96395
796.2990 26170.07107
796.4851 26580.85264
796.6712 26309.55822
796.8572 26200.54485
797.0432 25891.93643
797.2292 26150.28769
797.4152 26097.96209
797.6012 25554.00111
797.7872 25359.07545
797.9731 25440.23645
798.1591 25199.53868
798.3450 25136.97323
798.5309 25412.65031
798.7168 25317.97271
798.9027 25238.59344
799.0885 25482.56796
799.2744 25353.60737
799.4602 25594.01842
799.6460 25486.37718
799.8318 26033.67635
800.0176 25558.07657
800.2034 25628.07614
800.3892 25101.13378
800.5749 25037.01188
800.7606 24915.26014
800.9463 25172.01398
801.1320 25033.73513
801.3177 25076.10760
801.5034 25051.38862
801.6890 25489.42866
801.8747 24990.72779
802.0603 24732.84756
802.2459 24645.37882
802.4315 24763.81285
802.6171 24350.81947
802.8026 24716.66861
802.9882 24642.65502
803.1737 24373.10137
803.3592 24620.49600
803.5447 24513.65347
803.7302 24790.76412
803.9157 24713.94481
804.1012 24756.87023
804.2866 24236.15370
804.4720 24366.85507
804.6574 24300.99239
804.8428 24105.20658
805.0282 24026.89225
805.2136 23851.66805
805.3989 24112.78406
805.5843 23958.67441
805.7696 23898.09550
805.9549 23794.89835
806.1402 23594.36125
806.3255 23452.51894
806.5107 23629.38152
806.6960 23878.02540
806.8812 23430.23704
807.0664 23510.47645
807.2516 23262.01688
807.4368 23133.60924
807.6220 22999.77449
807.8072 23105.30632
807.9923 23263.51190
808.1774 23112.41277
808.3625 23401.91363
808.5476 23413.19794
808.7327 23543.46923
808.9178 23153.29022
809.1028 23107.62052
809.2879 23015.23665
809.4729 22993.87634
809.6579 22780.76471
809.8429 22931.16753
810.0279 22880.78750
810.2128 22643.26409
810.3978 22770.09479
810.5827 22951.23763
810.7676 23077.18770
810.9525 23145.95850
811.1374 22873.59913
811.3223 22895.63527
811.5072 22601.69032
811.6920 22641.09324
811.8768 22701.48784
812.0616 22620.69547
812.2464 22644.82054
812.4312 22415.73476
812.6160 22545.33022
812.8007 22754.98078
812.9855 22781.46102
813.1702 22554.66896
813.3549 22567.05917
813.5396 22193.57111
813.7243 22268.28101
813.9089 22260.58065
814.0936 22300.20884
814.2782 22300.82323
814.4628 22160.49641
814.6474 22174.15636
814.8320 22138.60363
815.0166 21918.83610
815.2012 22042.41053
815.3857 21844.45387
815.5702 21808.51202
815.7547 21839.25203
815.9392 21878.59351
816.1237 21654.52525
816.3082 21516.55360
816.4926 21683.01250
816.6771 21845.06827
816.8615 21477.10972
817.0459 21667.01786
817.2303 21570.68141
817.4147 21691.28629
817.5990 21666.32155
817.7834 21342.27146
817.9677 21429.28965
818.1520 21675.51693
818.3363 21533.14215
818.5206 21340.30541
818.7049 21178.84355
818.8891 21231.80402
819.0734 21298.13773
819.2576 21461.01269
819.4418 21086.84880
819.6260 21029.64903
819.8102 21134.89414
819.9944 21068.35564
820.1785 20874.55635
820.3627 21032.59810
820.5468 21018.40568
820.7309 20780.20643
820.9150 20591.91619
821.0991 20418.61707
821.2831 20716.14597
821.4672 20602.40179
821.6512 20489.14912
821.8352 20512.88507
822.0192 20830.68886
822.2032 20551.59168
822.3872 20649.66891
822.5711 20417.16301
822.7551 20323.79612
822.9390 20378.74312
823.1229 20436.70064
823.3068 20446.44897
823.4907 20169.25640
823.6745 20215.39713
823.8584 20056.57716
824.0422 20136.61177
824.2261 20232.12904
824.4099 20284.06552
824.5937 20316.23911
824.7774 20289.79984
824.9612 20276.67236
825.1449 19935.78796
825.3287 19942.71009
825.5124 19923.76638
825.6961 20159.42615
825.8798 20080.16976
826.0634 20141.32210
826.2471 20007.09823
826.4307 20319.45442
826.6144 20158.38168
826.7980 20252.75208
826.9816 20015.18771
827.1652 20119.90035
827.3487 20044.10503
827.5323 19729.29127
827.7158 19575.63217
827.8993 19883.07324
828.0828 19645.05832
828.2663 19378.04415
828.4498 19567.70654
828.6333 19735.66045
828.8167 19455.82600
829.0001 19520.02982
829.1836 19625.93029
829.3670 19578.13070
829.5504 19858.23138
829.7337 19694.16861
829.9171 19629.51423
830.1004 19662.95756
830.2837 19592.73271
830.4671 19372.02312
830.6504 19211.85149
830.8336 19356.17184
831.0169 19142.67110
831.2002 19586.91648
831.3834 19448.35092
831.5666 19115.96559
831.7498 19215.88598
831.9330 19531.66229
832.1162 19419.43360
832.2993 19287.91305
832.4825 19362.58199
832.6656 19168.20927
832.8487 18761.52364
833.0318 18953.72550
833.2149 18856.13979
833.3980 18832.71103
833.5811 18974.98342
833.7641 18899.02426
833.9471 18768.07714
834.1301 18517.85632
834.3131 18308.88158
834.4961 18555.02695
834.6791 18650.29845
834.8620 19025.44537
835.0450 18860.82964
835.2279 19001.85277
835.4108 18912.74565
835.5937 18989.13488
835.7766 18700.08458
835.9594 18635.20492
836.1423 18726.48289
836.3251 19077.42282
836.5079 18974.55335
836.6907 18504.21684
836.8735 18433.50048
837.0563 18437.18683
837.2390 18525.98675
837.4218 18372.96253
837.6045 18675.05840
837.7872 18705.51169
837.9699 18565.65591
838.1526 18354.59225
838.3352 18274.33235
838.5179 18211.58259
838.7005 18365.36456
838.8831 18448.30730
839.0658 18513.02311
839.2483 18516.27938
839.4309 18490.33162
839.6135 18476.24159
839.7960 18015.96061
839.9786 18127.98450
840.1611 17970.57763
840.3436 18193.80622
840.5261 17956.28280
840.7085 17858.63565
840.8910 17802.76707
841.0734 17798.79401
841.2559 17752.10032
841.4383 17951.40864
841.6207 18156.79943
841.8030 17986.75658
841.9854 17921.30350
842.1678 17767.33721
842.3501 17830.31225
842.5324 17714.78633
842.7147 17872.25465
842.8970 18046.10671
843.0793 17922.42988
843.2615 17891.36220
843.4438 17970.00420
843.6260 17947.72230
843.8082 17867.83103
843.9904 17859.86444
844.1726 17654.71941
844.3548 17610.60616
844.5369 17486.21254
844.7191 17499.11474
844.9012 17414.47219
845.0833 17478.83985
845.2654 17780.03461
845.4475 17835.90320
845.6296 17502.35053
845.8116 17423.68805
845.9936 17393.74675
846.1757 17477.95922
846.3577 17477.20147
846.5397 17495.89943
846.7216 17366.61116
846.9036 17281.08799
847.0855 17061.48430
847.2675 17279.65441
847.4494 17191.73511
847.6313 17458.33968
847.8132 17495.16216
847.9950 17347.52409
848.1769 17305.66361
848.3587 17510.46049
848.5406 17245.37141
848.7224 17180.26649
848.9042 17115.22300
849.0860 17214.48804
849.2677 17027.09890
849.4495 16903.05344
849.6312 16844.95256
849.8129 16917.61449
849.9946 17075.04185
850.1763 17001.82697
850.3580 16810.32141
850.5397 16732.70340
850.7213 16442.44478
850.9029 16521.63974
851.0845 16608.39169
851.2661 16547.50558
851.4477 16591.39355
851.6293 16699.34198
851.8109 16668.62245
851.9924 16794.38821
852.1739 16871.35088
852.3554 16737.41372
852.5369 16597.98801
852.7184 16414.57193
852.8999 16351.59689
853.0813 16326.14064
853.2628 16404.12729
853.4442 16463.92798
853.6256 16432.53262
853.8070 16609.41568
853.9883 16620.20847
854.1697 16468.88406
854.3510 16308.38475
854.5324 16270.33349
854.7137 16312.84932
854.8950 16231.66784
855.0763 16238.07798
855.2575 16286.47148
855.4388 16317.49821
855.6200 16305.06704
855.8013 16309.42921
855.9825 16217.84405
856.1637 16245.08204
856.3449 16143.78950
856.5260 16144.34245
856.7072 16147.37345
856.8883 16375.61956
857.0694 16245.22539
857.2505 16236.64440
857.4316 16235.57946
857.6127 16117.12495
857.7938 16226.71176
857.9748 16174.95959
858.1558 16013.86636
858.3368 15927.15537
858.5178 15890.37385
858.6988 16029.12373
858.8798 15973.70570
859.0607 16123.24838
859.2417 15982.81916
859.4226 15939.15646
859.6035 15962.72858
859.7844 16057.11946
859.9653 15953.81992
860.1462 15797.06839
860.3270 15741.38412
860.5078 15667.86204
860.6887 15685.08546
860.8695 15616.74474
861.0503 15713.53175
861.2310 15500.15388
861.4118 15463.94580
861.5925 15379.28277
861.7733 15304.79814
861.9540 15168.50582
862.1347 15024.34930
862.3154 14947.05896
862.4960 15041.18361
862.6767 15115.83207
862.8573 15053.18470
863.0380 15023.10004
863.2186 15116.44646
863.3992 15026.11056
863.5797 15015.42016
863.7603 15052.73415
863.9409 14911.23999
864.1214 15001.14582
864.3019 15082.16346
864.4824 15072.45609
864.6629 14974.37887
864.8434 14765.34270
865.0238 14944.35564
865.2043 15021.76886
865.3847 14623.07031
865.5651 14531.07555
865.7455 14753.73071
865.9259 14727.86487
866.1063 14640.00701
866.2866 14604.49523
866.4670 14630.58635
866.6473 14537.50617
866.8276 14472.91324
867.0079 14443.77064
867.1882 14356.11758
867.3684 14287.57207
867.5487 14255.74663
867.7289 14254.37449
867.9091 14297.27944
868.0893 14120.37590
868.2695 13890.38901
868.4497 13816.12966
868.6299 13936.12015
868.8100 13943.75907
868.9901 13865.60858
869.1703 13969.52252
869.3504 13986.76642
869.5304 13969.35868
869.7105 14047.87780
869.8906 13984.02214
870.0706 13929.19801
870.2506 14050.06913
870.4306 14046.48518
870.6106 13986.80738
870.7906 14088.55046
870.9706 13912.07700
871.1505 13791.39020
871.3305 13822.02781
871.5104 13625.62761
871.6903 13577.82802
871.8702 13702.67219
872.0500 13658.88662
872.2299 13682.45874
872.4097 13511.35095
872.5896 13621.83886
872.7694 13671.37923
872.9492 13500.21000
873.1290 13196.70103
873.3087 13247.53162
873.4885 13533.40757
873.6682 13514.21811
873.8480 13404.26266
874.0277 13446.51226
874.2074 13201.39088
874.3870 13304.81330
874.5667 13357.28226
874.7463 13472.21427
874.9260 13313.66053
875.1056 13265.00079
875.2852 13197.66358
875.4648 13138.02673
875.6444 13112.42712
875.8239 13247.51114
876.0035 13101.49096
876.1830 13100.93801
876.3625 12987.11191
876.5420 12984.73627
876.7215 13001.63201
876.9010 12775.20858
877.0804 12859.85113
877.2599 12817.88825
877.4393 12960.40640
877.6187 13002.53311
877.7981 12998.53958
877.9775 12818.99415
878.1568 13073.92530
878.3362 12929.85070
878.5155 12851.22918
878.6948 12606.04636
878.8741 12651.16312
879.0534 12604.36703
879.2327 12524.59865
879.4119 12472.86696
879.5912 12348.26854
879.7704 12542.72317
879.9496 12640.22696
880.1288 12486.77266
880.3080 12231.14520
880.4872 12381.67091
880.6663 12365.94251
880.8455 12428.07788
881.0246 12497.21730
881.2037 12473.31751
881.3828 12353.14270
881.5619 12266.26787
881.7409 12239.41900
881.9200 12101.09919
882.0990 12239.76715
882.2780 12181.05189
882.4570 12142.81631
882.6360 12162.31298
882.8150 11973.22402
882.9940 11874.40953
883.1729 11897.57205
883.3518 12155.20652
883.5308 12086.55861
883.7096 12120.82113
883.8885 11931.71169
884.0674 11879.28369
884.2463 11837.83281
884.4251 11878.25971
884.6039 11728.96279
884.7827 11780.34632
884.9615 11738.64968
885.1403 11741.92643
885.3191 11780.46920
885.4978 11542.86387
885.6765 11618.29056
885.8553 11746.22716
886.0340 11685.77113
886.2127 11662.17853
886.3913 11527.77034
886.5700 11482.20303
886.7486 11431.27005
886.9273 11388.63134
887.1059 11280.23235
887.2845 11293.40079
887.4630 11371.26457
887.6416 11411.97818
887.8202 11452.11837
887.9987 11361.53671
888.1772 11406.85826
888.3557 11388.63134
888.5342 11250.00434
888.7127 11384.98596
888.8912 11340.60647
889.0696 11307.67514
889.2481 11139.06587
889.4265 11047.58310
889.6049 11011.80509
889.7833 11038.87924
889.9616 10945.92194
890.1400 10962.34665
890.3183 10635.81851
890.4967 10784.82871
890.6750 10989.70751
890.8533 10926.93727
891.0316 10861.36131
891.2098 10744.95476
891.3881 10708.60332
891.5663 10690.62215
891.7445 10704.24114
891.9227 10593.87611
892.1009 10602.14990
892.2791 10742.84535
892.4573 10778.45953
892.6354 10611.18144
892.8136 10632.05025
892.9917 10627.97479
893.1698 10477.65388
893.3479 10651.93602
893.5259 10828.04085
893.7040 10649.08935
893.8820 10580.95342
894.0601 10581.13774
894.2381 10618.06262
894.4161 10660.74229
894.5941 10666.45612
894.7720 10657.87513
894.9500 10638.64470
895.1279 10692.62916
895.3058 10573.06875
895.4838 10571.26653
895.6616 10476.05647
895.8395 10436.40779
896.0174 10387.07222
896.1952 10379.00323
896.3731 10453.01682
896.5509 10388.03477
896.7287 10359.75232
896.9065 10352.72779
897.0842 10364.83128
897.2620 10298.84573
897.4397 10243.22290
897.6175 10263.31347
897.7952 10300.07451
897.9729 10444.00575
898.1506 10414.51500
898.3282 10263.68211
898.5059 10231.95907
898.6835 10233.18785
898.8611 10338.74016
899.0388 10208.50983
899.2163 10047.90812
899.3939 10001.39875
899.5715 10095.54387
899.7490 10029.88599
899.9266 10055.30129
900.1041 10143.60970
900.2816 10157.92500
900.4591 10057.86125
900.6365 10081.00329
900.8140 9960.43937
900.9914 9991.67090
901.1689 9997.87624
901.3463 9953.29196
901.5237 9953.70156
901.7011 9938.32131
901.8784 9873.95365
902.0558 9790.56037
902.2331 9875.71491
902.4104 9967.62774
902.5878 9941.41374
902.7650 9889.88685
902.9423 9836.47582
903.1196 9891.27947
903.2968 10028.28858
903.4741 10000.98915
903.6513 9841.24759
903.8285 9757.56759
904.0057 9812.49411
904.1828 9675.15733
904.3600 9547.67127
904.5371 9565.89819
904.7143 9599.42344
904.8914 9674.62485
905.0685 9748.78180
905.2456 9747.16391
905.4226 9744.31723
905.5997 9776.40890
905.7767 9839.17914
905.9537 9641.46824
906.1307 9585.35390
906.3077 9482.44347
906.4847 9477.26211
906.6617 9461.45179
906.8386 9527.70358
907.0156 9463.47928
907.1925 9366.28268
907.3694 9354.89597
907.5463 9411.99334
907.7231 9475.17318
907.9000 9454.65253
908.0768 9364.91054
908.2537 9216.90384
908.4305 9284.01577
908.6073 9451.68298
908.7841 9424.40403
908.9608 9295.62776
909.1376 9245.80068
909.3143 9230.25660
909.4910 9151.34836
909.6677 9168.63322
909.8444 9191.36567
910.0211 9227.26656
910.1978 9176.51790
910.3744 9189.11290
910.5510 9262.06155
910.7277 9259.62447
910.9043 9134.86221
911.0808 9167.24060
911.2574 9163.16514
911.4340 9084.70746
911.6105 8950.11495
911.7870 9007.62191
911.9636 9035.10565
912.1401 9017.16545
912.3165 9067.07445
912.4930 8986.42544
912.6695 8896.62201
912.8459 8893.81629
913.0223 8894.06205
913.1987 8918.90391
913.3751 8847.59363
913.5515 8779.74443
913.7279 8822.48554
913.9042 8800.16268
914.0805 8732.04724
914.2568 8721.15204
914.4331 8689.87956
914.6094 8694.36461
914.7857 8678.61573
914.9620 8641.83421
915.1382 8603.16856
915.3144 8504.86606
915.4906 8650.41520
915.6668 8692.93103
915.8430 8575.23427
916.0192 8387.51745
916.1953 8521.47509
916.3715 8612.89642
916.5476 8529.97416
916.7237 8557.19167
916.8998 8524.36273
917.0759 8480.24948
917.2519 8416.51669
917.4280 8503.84208
917.6040 8461.36721
917.7800 8433.33052
917.9560 8449.26371
918.1320 8381.14827
918.3080 8382.33609
918.4839 8289.84982
918.6599 8240.22754
918.8358 8279.07751
919.0117 8307.11420
919.1876 8233.51020
919.3635 8234.67755
919.5394 8281.45315
919.7152 8236.27496
919.8911 8168.18000
920.0669 8166.33683
920.2427 8076.71772
920.4185 8010.46593
920.5942 7998.81299
920.7700 7971.98460
920.9458 8029.79875
921.1215 8050.85187
921.2972 8029.10244
921.4729 8031.58049
921.6486 7907.18686
921.8243 7756.90692
921.9999 7785.66040
922.1756 7807.00023
922.3512 7839.35814
922.5268 7751.86891
922.7024 7862.31587
922.8780 7914.45715
923.0535 7897.80717
923.2291 7879.49833
923.4046 7911.26232
923.5801 8025.88713
923.7557 7910.38170
923.9311 7860.53414
924.1066 7831.45298
924.2821 7930.41083
924.4575 7901.61639
924.6330 7866.43229
924.8084 7752.36043
924.9838 7646.54188
925.1592 7647.89354
925.3345 7651.19077
925.5099 7639.84502
925.6852 7649.14280
925.8606 7582.93197
926.0359 7515.20565
926.2112 7507.42336
926.3864 7475.08594
926.5617 7387.71959
926.7370 7412.74577
926.9122 7391.75409
927.0874 7342.13181
927.2626 7311.78091
927.4378 7299.16542
927.6130 7313.82888
927.7882 7279.95548
927.9633 7237.66492
928.1384 7158.42901
928.3135 7053.71637
928.4886 7009.58264
928.6637 7052.11895
928.8388 7070.71451
929.0139 7099.54991
929.1889 7058.11950
929.3639 7036.39055
929.5389 7057.85326
929.7139 7030.71768
929.8889 7060.74090
930.0639 7066.92577
930.2388 7004.74943
930.4138 6952.93583
930.5887 6976.15979
930.7636 7043.61988
930.9385 7004.03265
931.1134 6852.85159
931.2882 6839.88795
931.4631 6748.69190
931.6379 6749.69541
931.8127 6744.98508
931.9875 6733.63933
932.1623 6715.51481
932.3371 6722.43694
932.5118 6746.19338
932.6866 6700.01168
932.8613 6650.51228
933.0360 6632.55159
933.2107 6578.95625
933.3854 6524.37788
933.5600 6553.72528
933.7347 6439.94013
933.9093 6459.39584
934.0839 6455.27942
934.2586 6497.56997
934.4331 6480.98143
934.6077 6446.08404
934.7823 6381.51158
934.9568 6383.88723
935.1314 6360.74518
935.3059 6335.26845
935.4804 6290.82753
935.6549 6302.72623
935.8293 6307.70279
936.0038 6307.02696
936.1782 6302.93102
936.3526 6327.83432
936.5271 6225.33349
936.7015 6187.58942
936.8758 6206.71745
937.0502 6221.83146
937.2246 6195.69938
937.3989 6248.22978
937.5732 6180.70825
937.7475 6119.51494
937.9218 6104.38045
938.0961 6083.08158
938.2703 6089.38932
938.4446 6050.80559
938.6188 6055.90503
938.7930 6009.41614
938.9672 5983.09974
939.1414 6020.02462
939.3156 5929.91400
939.4897 5864.58379
939.6639 5834.11002
939.8380 5867.88102
940.0121 5862.24911
940.1862 5874.59836
940.3603 5880.23027
940.5344 5906.13708
940.7084 5931.75717
940.8824 5913.61216
941.0565 5892.92768
941.2305 5861.88047
941.4045 5773.73590
941.5784 5780.53515
941.7524 5802.53034
941.9263 5843.10060
942.1003 5837.55060
942.2742 5812.62683
942.4481 5693.10737
942.6220 5682.53985
942.7958 5706.78780
942.9697 5708.75385
943.1435 5728.29147
943.3174 5728.02524
943.4912 5700.60293
943.6650 5693.12785
943.8387 5633.14284
944.0125 5555.25859
944.1863 5581.47259
944.3600 5600.80542
944.5337 5559.17021
944.7074 5576.49603
944.8811 5534.34883
945.0548 5501.29462
945.2284 5458.73783
945.4021 5442.19024
945.5757 5486.77452
945.7493 5429.34947
945.9229 5302.90788
946.0965 5278.53705
946.2701 5268.54297
946.4436 5305.54976
946.6172 5314.39699
946.7907 5310.73112
946.9642 5277.32875
947.1377 5265.53245
947.3112 5289.53465
947.4847 5308.31452
947.6581 5322.07687
947.8315 5321.99495
948.0050 5238.08967
948.1784 5203.80667
948.3518 5238.54023
948.5251 5197.84709
948.6985 5242.73856
948.8718 5226.53913
949.0452 5154.53255
949.2185 5150.35469
949.3918 5117.64863
949.5651 5139.70525
949.7383 5097.68093
949.9116 5097.66045
950.0848 5105.44274
950.2581 5114.24900
950.4313 5157.68642
950.6045 5155.00358
950.7776 5131.94345
950.9508 5082.17781
951.1239 5052.11363
951.2971 4981.78638
951.4702 4993.33693
951.6433 5000.27954
951.8164 4944.20616
951.9895 4979.98417
952.1625 4922.55913
952.3356 4949.83807
952.5086 4895.46450
952.6816 4963.55946
952.8546 4912.83128
953.0276 4886.10528
953.2006 4901.40361
953.3735 4888.68572
953.5465 4879.14219
953.7194 4876.64367
953.8923 4826.95995
954.0652 4851.39221
954.2381 4771.58287
954.4109 4731.81132
954.5838 4750.48879
954.7566 4746.12662
954.9294 4683.31542
955.1022 4704.49141
955.2750 4714.93605
955.4478 4700.08828
955.6206 4708.99695
955.7933 4733.85929
955.9660 4706.58034
956.1388 4683.70453
956.3115 4675.00066
956.4841 4623.88336
956.6568 4592.38560
956.8295 4570.94337
957.0021 4561.33840
957.1747 4564.30795
957.3473 4529.06241
957.5199 4512.84250
957.6925 4538.81074
957.8651 4537.19285
958.0376 4565.41386
958.2102 4503.17609
958.3827 4563.55020
958.5552 4619.19352
958.7277 4566.45832
958.9001 4511.16316
959.0726 4450.15417
959.2450 4438.50123
959.4175 4432.35733
959.5899 4380.15460
959.7623 4386.46235
959.9347 4328.58675
960.1070 4287.91409
960.2794 4306.16149
960.4517 4286.33715
960.6241 4297.84674
960.7964 4331.72014
960.9687 4351.62640
961.1409 4330.86000
961.3132 4300.63198
961.4855 4241.77335
961.6577 4227.64237
961.8299 4256.53921
962.0021 4260.38939
962.1743 4217.54588
962.3465 4164.79021
962.5186 4170.46308
962.6908 4176.50459
962.8629 4156.43450
963.0350 4147.03432
963.2071 4157.41752
963.3792 4114.57402
963.5513 4075.06870
963.7233 4130.58913
963.8954 4123.15500
964.0674 4099.11185
964.2394 4078.07921
964.4114 4074.22903
964.5834 4066.28291
964.7553 4068.82239
964.9273 4064.00967
965.0992 4015.80048
965.2711 4046.74529
965.4430 4050.71835
965.6149 4053.91318
965.7868 4019.91690
965.9587 3974.45199
966.1305 4007.23997
966.3023 4005.80640
966.4741 4016.80399
966.6459 3975.43502
966.8177 3981.76324
966.9895 3952.27249
967.1613 3950.16308
967.3330 3952.31345
967.5047 3919.89411
967.6764 3914.48747
967.8481 3898.24708
968.0198 3864.51703
968.1915 3844.13974
968.3631 3852.51593
968.5347 3855.34213
968.7064 3836.23458
968.8780 3823.02518
969.0496 3824.25397
969.2211 3794.53794
969.3927 3822.61559
969.5642 3783.33555
969.7358 3768.38538
969.9073 3747.53706
970.0788 3803.30325
970.2503 3801.72631
970.4217 3787.57485
970.5932 3767.81195
970.7646 3752.08355
970.9360 3759.21048
971.1074 3761.40180
971.2788 3789.68425
971.4502 3768.87689
971.6216 3740.79924
971.7929 3703.01422
971.9643 3685.23785
972.1356 3715.01531
972.3069 3712.10720
972.4782 3681.89966
972.6494 3650.56574
972.8207 3661.66573
972.9919 3642.43530
973.1632 3607.80415
973.3344 3574.40178
973.5056 3539.09480
973.6768 3555.68334
973.8479 3604.24068
974.0191 3610.99898
974.1902 3604.52740
974.3614 3562.05253
974.5325 3583.20804
974.7036 3573.80787
974.8746 3551.66932
975.0457 3528.44536
975.2167 3500.34723
975.3878 3481.79263
975.5588 3487.17879
975.7298 3492.44207
975.9008 3465.53176
976.0718 3467.84596
976.2427 3444.21240
976.4137 3431.08493
976.5846 3434.81223
976.7555 3413.88199
976.9264 3414.70118
977.0973 3407.73808
977.2682 3424.06039
977.4390 3420.10781
977.6098 3447.16148
977.7807 3451.15502
977.9515 3435.16038
978.1223 3452.13804
978.2930 3414.23014
978.4638 3395.90082
978.6346 3345.86895
978.8053 3331.14405
978.9760 3312.58945
979.1467 3305.56492
979.3174 3313.63392
979.4881 3317.77081
979.6587 3316.70587
979.8294 3312.09794
980.0000 3284.04077
980.1706 3264.72842
980.3412 3235.46295
980.5118 3231.75613
980.6824 3211.29692
980.8529 3254.61146
981.0235 3260.59153
981.1940 3262.06606
981.3645 3225.96038
981.5350 3232.16572
981.7055 3202.16298
981.8759 3215.24950
982.0464 3210.51869
982.2168 3181.88809
982.3872 3217.54322
982.5576 3199.99213
982.7280 3198.04656
982.8984 3194.89269
983.0687 3191.24730
983.2391 3171.66872
983.4094 3154.17907
983.5797 3136.68942
983.7500 3156.20656
983.9203 3112.38003
984.0906 3125.56895
984.2608 3099.80550
984.4311 3133.33075
984.6013 3087.45625
984.7715 3125.01600
984.9417 3125.01600
985.1119 3103.38945
985.2820 3064.96955
985.4522 3060.64834
985.6223 3075.12748
985.7924 3063.26974
985.9625 3054.81163
986.1326 3091.55219
986.3027 3067.93911
986.4727 3068.65590
986.6428 3052.21071
986.8128 3024.52217
986.9828 3009.28528
987.1528 3009.81775
987.3228 3019.75040
987.4928 3029.82641
987.6627 3019.72992
987.8327 2995.13382
988.0026 2985.30357
988.1725 2976.12867
988.3424 2953.62149
988.5123 2956.57057
988.6821 2943.03349
988.8520 2967.17904
989.0218 2950.48810
989.1916 2974.30598
989.3614 2925.40048
989.5312 2918.10971
989.7010 2890.38022
989.8707 2901.82836
990.0405 2895.19294
990.2102 2902.19700
990.3799 2890.33926
990.5496 2882.29074
990.7193 2870.96547
990.8890 2857.71511
991.0586 2850.36291
991.2283 2873.03392
991.3979 2845.52970
991.5675 2870.00293
991.7371 2846.86088
991.9067 2825.60296
992.0762 2802.33804
992.2458 2812.39357
992.4153 2836.41624
992.5848 2848.82693
992.7543 2844.87435
992.9238 2814.19578
993.0933 2815.93655
993.2627 2809.01442
993.4322 2792.36443
993.6016 2801.64173
993.7710 2755.21428
993.9404 2769.50910
994.1098 2754.39509
994.2792 2766.25283
994.4485 2755.99251
994.6179 2738.15470
994.7872 2748.49694
994.9565 2744.99491
995.1258 2758.02000
995.2951 2750.44251
995.4643 2748.53790
995.6336 2746.34657
995.8028 2732.09271
995.9720 2705.81727
996.1412 2718.02317
996.3104 2719.92778
996.4796 2712.67797
996.6487 2716.40527
996.8179 2717.85933
996.9870 2716.95822
997.1561 2690.02743
997.3252 2677.06379
997.4943 2666.04572
997.6634 2672.45586
997.8324 2676.42892
998.0014 2664.48926
998.1705 2654.06510
998.3395 2620.25314
998.5085 2604.40186
998.6774 2623.57085
998.8464 2594.16202
999.0153 2608.62067
999.1843 2614.74410
999.3532 2622.44446
999.5221 2602.06718
999.6910 2616.03432
999.8599 2631.08689
1000.0287 2645.15644
1000.1976 2636.92360
1000.3664 2634.69132
1000.5352 2628.19926
1000.7040 2623.77564
1000.8728 2612.92141
1001.0415 2582.44763
1001.2103 2551.66666
1001.3790 2567.59986
1001.5478 2553.53032
1001.7165 2540.15708
1001.8851 2539.17405
1002.0538 2542.86040
1002.2225 2550.00781
1002.3911 2548.53327
1002.5598 2527.99215
1002.7284 2523.11798
1002.8970 2521.39769
1003.0656 2526.74288
1003.2341 2505.58737
1003.4027 2512.14087
1003.5712 2460.24534
1003.7398 2476.01470
1003.9083 2477.01820
1004.0768 2461.06453
1004.2453 2432.78208
1004.4137 2466.45068
1004.5822 2451.35715
1004.7506 2461.22836
1004.9190 2433.70366
1005.0874 2434.74813
1005.2558 2437.26713
1005.4242 2432.72064
1005.5926 2432.53632
1005.7609 2421.72305
1005.9292 2401.57103
1006.0976 2423.34094
1006.2659 2416.09113
1006.4342 2435.17820
1006.6024 2415.55866
1006.7707 2430.54979
1006.9389 2425.75755
1007.1071 2432.27009
1007.2754 2422.23504
1007.4436 2407.98118
1007.6117 2387.33765
1007.7799 2394.09595
1007.9481 2385.39208
1008.1162 2405.09354
1008.2843 2384.79817
1008.4524 2392.35517
1008.6205 2376.77013
1008.7886 2381.21423
1008.9566 2363.64265
1009.1247 2357.70354
1009.2927 2336.42515
1009.4607 2337.83825
1009.6287 2341.17644
1009.7967 2331.40762
1009.9647 2332.30873
1010.1327 2326.34914
1010.3006 2305.74658
1010.4685 2319.07885
1010.6364 2305.88993
1010.8043 2304.59971
1010.9722 2295.87537
1011.1401 2281.19143
1011.3079 2276.27631
1011.4758 2291.45175
1011.6436 2293.15157
1011.8114 2294.60563
1011.9792 2298.06669
1012.1470 2306.83200
1012.3147 2299.82795
1012.4825 2297.55470
1012.6502 2304.04676
1012.8179 2300.21706
1012.9856 2275.02705
1013.1533 2290.98072
1013.3210 2253.09330
1013.4886 2251.68020
1013.6563 2235.46029
1013.8239 2243.38593
1013.9915 2254.77263
1014.1591 2244.73759
1014.3267 2234.37487
1014.4942 2238.55272
1014.6618 2232.30642
1014.8293 2246.41692
1014.9969 2225.05661
1015.1644 2244.45087
1015.3319 2238.81896
1015.4993 2216.12746
1015.6668 2218.54407
1015.8342 2218.44167
1016.0017 2211.17138
1016.1691 2217.70440
1016.3365 2203.67581
1016.5039 2199.53892
1016.6712 2207.15736
1016.8386 2191.85903
1017.0059 2195.95497
1017.1733 2183.23709
1017.3406 2178.21956
1017.5079 2172.54669
1017.6752 2169.98673
1017.8424 2172.79245
1018.0097 2164.88729
1018.1769 2163.88378
1018.3441 2152.08748
1018.5113 2164.68249
1018.6785 2159.50113
1018.8457 2162.59356
1019.0129 2156.47013
1019.1800 2173.30444
1019.3471 2162.57308
1019.5142 2165.82935
1019.6813 2162.28637
1019.8484 2153.52106
1020.0155 2151.94412
1020.1826 2137.58786
1020.3496 2128.86352
1020.5166 2117.64065
1020.6836 2115.94083
1020.8506 2116.71906
1021.0176 2102.23992
1021.1846 2117.45633
1021.3515 2100.02812
1021.5185 2109.89932
1021.6854 2097.12000
1021.8523 2114.48678
1022.0192 2112.86888
1022.1861 2106.76593
1022.3529 2089.07148
1022.5198 2100.94970
1022.6866 2077.56190
1022.8534 2095.97314
1023.0202 2080.61337
1023.1870 2078.05341
1023.3538 2069.61578
1023.5205 2077.99197
1023.6873 2064.82353
1023.8540 2067.28110
1024.0207 2059.53977
1024.1874 2079.54843
1024.3541 2066.48239
1024.5207 2063.32852
1024.6874 2052.28996
1024.8540 2066.37999
1025.0206 2044.28241
1025.1872 2056.63166
1025.3538 2042.78739
1025.5204 2044.97872
1025.6870 2037.95418
1025.8535 2031.72836
1026.0201 2032.36323
1026.1866 2031.35972
1026.3531 2017.45402
1026.5196 2024.13039
1026.6860 2022.57394
1026.8525 2026.03500
1027.0189 2003.60975
1027.1853 2020.15733
1027.3518 2007.37801
1027.5181 2021.30420
1027.6845 2014.87358
1027.8509 2007.54185
1028.0172 1990.25699
1028.1836 1984.82987
1028.3499 1983.04814
1028.5162 1986.34537
1028.6825 1968.58948
1028.8488 1979.75091
1029.0150 1972.48062
1029.1813 1969.61347
1029.3475 1962.30222
1029.5137 1962.15886
1029.6799 1970.88321
1029.8461 1949.83009
1030.0123 1951.91902
1030.1784 1962.09742
1030.3446 1946.14374
1030.5107 1958.45204
1030.6768 1948.53987
1030.8429 1943.60426
1031.0090 1939.42641
1031.1750 1943.50186
1031.3411 1934.65464
1031.5071 1940.63471
1031.6732 1927.95778
1031.8392 1936.64117
1032.0051 1922.53066
1032.1711 1927.48675
1032.3371 1918.06609
1032.5030 1918.74192
1032.6690 1925.23398
1032.8349 1921.07661
1033.0008 1907.35522
1033.1667 1924.33288
1033.3325 1902.05098
1033.4984 1913.41720
1033.6642 1908.64544
1033.8300 1930.12863
1033.9959 1913.74488
1034.1616 1908.56352
1034.3274 1909.34175
1034.4932 1911.96315
1034.6589 1897.11537
1034.8247 1907.43713
1034.9904 1884.17221
1035.1561 1896.89010
1035.3218 1893.28567
1035.4875 1896.58290
1035.6531 1884.15173
1035.8188 1896.91057
1035.9844 1879.54380
1036.1500 1882.41096
1036.3156 1870.10266
1036.4812 1871.31097
1036.6468 1855.07057
1036.8123 1865.59713
1036.9779 1866.94879
1037.1434 1878.64269
1037.3089 1862.46374
1037.4744 1871.18809
1037.6399 1874.19860
1037.8053 1864.24547
1037.9708 1860.72297
1038.1362 1862.89381
1038.3016 1858.96171
1038.4670 1859.35083
1038.6324 1868.97628
1038.7978 1843.27427
1038.9632 1849.56154
1039.1285 1854.06707
1039.2938 1847.96412
1039.4592 1844.52353
1039.6245 1831.43701
1039.7897 1837.35564
1039.9550 1839.95656
1040.1203 1831.98997
1040.2855 1822.95842
1040.4507 1840.91911
1040.6159 1829.51192
1040.7811 1824.06433
1040.9463 1818.43241
1041.1115 1814.47983
1041.2766 1810.48629
1041.4418 1794.79885
1041.6069 1792.21841
1041.7720 1807.45530
1041.9371 1795.98667
1042.1021 1800.43077
1042.2672 1791.74738
1042.4323 1799.09959
1042.5973 1793.91823
1042.7623 1795.94572
1042.9273 1790.60052
1043.0923 1799.65254
1043.2572 1795.24941
1043.4222 1786.81177
1043.5871 1770.77618
1043.7521 1786.29978
1043.9170 1788.40919
1044.0819 1795.65900
1044.2467 1782.26528
1044.4116 1779.70532
1044.5765 1772.59887
1044.7413 1772.20976
1044.9061 1771.63633
1045.0709 1777.02248
1045.2357 1760.92545
1045.4005 1756.99335
1045.5652 1751.44335
1045.7300 1746.73303
1045.8947 1752.07823
1046.0594 1746.38487
1046.2241 1743.02620
1046.3888 1751.38192
1046.5535 1755.23210
1046.7181 1748.67860
1046.8828 1734.58857
1047.0474 1727.25684
1047.2120 1735.26440
1047.3766 1741.44927
1047.5412 1723.87770
1047.7057 1724.53305
1047.8703 1723.73434
1048.0348 1734.36330
1048.1993 1732.56108
1048.3639 1732.72492
1048.5283 1712.85962
1048.6928 1701.39100
1048.8573 1709.52143
1049.0217 1712.40907
1049.1861 1697.88897
1049.3506 1706.26516
1049.5150 1711.89708
1049.6793 1709.72623
1049.8437 1709.46000
1050.0081 1703.91000
1050.1724 1694.30503
1050.3367 1695.20613
1050.5010 1698.89248
1050.6653 1698.64672
1050.8296 1682.01721
1050.9939 1683.26648
1051.1581 1685.70356
1051.3224 1690.82348
1051.4866 1678.74046
1051.6508 1685.10965
1051.8150 1678.37183
1051.9791 1672.69896
1052.1433 1668.64398
1052.3074 1671.55209
1052.4716 1663.31926
1052.6357 1658.99805
1052.7998 1662.11096
1052.9639 1670.71243
1053.1279 1656.60192
1053.2920 1656.70432
1053.4560 1645.58385
1053.6201 1667.12848
1053.7841 1649.00396
1053.9481 1649.45451
1054.1120 1643.12629
1054.2760 1642.90101
1054.4399 1646.03440
1054.6039 1645.13330
1054.7678 1636.32703
1054.9317 1638.76411
1055.0956 1641.34455
1055.2595 1641.01688
1055.4233 1634.44290
1055.5872 1632.25157
1055.7510 1624.89937
1055.9148 1621.82741
1056.0786 1629.87593
1056.2424 1640.05433
1056.4062 1621.78645
1056.5699 1631.16615
1056.7336 1621.02870
1056.8974 1608.39274
1057.0611 1617.50620
1057.2248 1610.35879
1057.3885 1611.19845
1057.5521 1615.58111
1057.7158 1593.77024
1057.8794 1616.23646
1058.0430 1609.80584
1058.2066 1613.67650
1058.3702 1605.11599
1058.5338 1616.33886
1058.6973 1596.80123
1058.8609 1601.28629
1059.0244 1594.79422
1059.1879 1605.38222
1059.3514 1583.93999
1059.5149 1595.85917
1059.6784 1588.15881
1059.8418 1587.52394
1060.0053 1575.99387
1060.1687 1579.16822
1060.3321 1564.13613
1060.4955 1568.60070
1060.6589 1573.47487
1060.8222 1575.42044
1060.9856 1574.10974
1061.1489 1561.88337
1061.3122 1560.79794
1061.4755 1569.68613
1061.6388 1569.97284
1061.8021 1577.05882
1061.9654 1566.96233
1062.1286 1558.54518
1062.2918 1559.52820
1062.4550 1557.95127
1062.6182 1550.53762
1062.7814 1557.60311
1062.9446 1559.91732
1063.1077 1552.23743
1063.2709 1536.52951
1063.4340 1544.31180
1063.5971 1536.50903
1063.7602 1541.85423
1063.9233 1528.87011
1064.0863 1540.31826
1064.2494 1524.22122
1064.4124 1534.09243
1064.5754 1536.44760
1064.7384 1536.44760
1064.9014 1531.71679
1065.0644 1531.04096
1065.2274 1510.47935
1065.3903 1523.11532
1065.5532 1518.60979
1065.7162 1520.37104
1065.8790 1514.08378
1066.0419 1515.25112
1066.2048 1521.92750
1066.3677 1520.41200
1066.5305 1511.35998
1066.6933 1504.66312
1066.8561 1499.19504
1067.0189 1501.77548
1067.1817 1498.17106
1067.3445 1501.73452
1067.5072 1482.03307
1067.6699 1492.25243
1067.8327 1492.82586
1067.9954 1493.68601
1068.1580 1481.56203
1068.3207 1482.27882
1068.4834 1483.03657
1068.6460 1488.54561
1068.8086 1481.48011
1068.9713 1475.52053
1069.1339 1474.86518
1069.2964 1473.37016
1069.4590 1473.84119
1069.6216 1479.35023
1069.7841 1461.53290
1069.9466 1468.29120
1070.1091 1457.78512
1070.2716 1469.56094
1070.4341 1456.47442
1070.5966 1468.41407
1070.7590 1458.05135
1070.9214 1460.11980
1071.0839 1451.39545
1071.2463 1459.89452
1071.4086 1448.18014
1071.5710 1440.37738
1071.7334 1439.66059
1071.8957 1446.58273
1072.0580 1443.06022
1072.2204 1442.28199
1072.3827 1425.98016
1072.5449 1439.06668
1072.7072 1434.06964
1072.8695 1429.93274
1073.0317 1423.07205
1073.1939 1425.07905
1073.3561 1422.80581
1073.5183 1438.04270
1073.6805 1408.42907
1073.8427 1430.38329
1074.0048 1411.09143
1074.1669 1421.98662
1074.3291 1412.29973
1074.4912 1417.52205
1074.6532 1406.52446
1074.8153 1409.24826
1074.9774 1401.26118
1075.1394 1402.10085
1075.3014 1402.98147
1075.4635 1403.78018
1075.6255 1388.50233
1075.7874 1399.97096
1075.9494 1389.99735
1076.1114 1399.93000
1076.2733 1390.40694
1076.4352 1399.70472
1076.5971 1382.35843
1076.7590 1395.34255
1076.9209 1371.64755
1077.0828 1385.77853
1077.2446 1380.94533
1077.4064 1380.51525
1077.5683 1370.91028
1077.7301 1383.21857
1077.8918 1373.10161
1078.0536 1380.55621
1078.2154 1369.68150
1078.3771 1372.09810
1078.5388 1368.00217
1078.7006 1371.58611
1078.8623 1358.72487
1079.0239 1366.77338
1079.1856 1356.36970
1079.3473 1367.51065
1079.5089 1357.74184
1079.6705 1358.35623
1079.8321 1351.82321
1079.9937 1356.71786
1080.1553 1340.21123
1080.3169 1354.32173
1080.4784 1347.23576
1080.6399 1356.61546
1080.8014 1347.52248
1080.9629 1350.63539
1081.1244 1347.52248
1081.2859 1336.13577
1081.4474 1328.92692
1081.6088 1336.60680
1081.7702 1329.84851
1081.9316 1341.89056
1082.0930 1332.89998
1082.2544 1334.74315
1082.4158 1324.64667
1082.5771 1330.66770
1082.7385 1320.98080
1082.8998 1336.52489
1083.0611 1314.24299
1083.2224 1316.74151
1083.3837 1316.33191
1083.5449 1317.72453
1083.7062 1314.98025
1083.8674 1319.62914
1084.0286 1302.93820
1084.1898 1308.14004
1084.3510 1301.60702
1084.5122 1315.34889
1084.6734 1303.10204
1084.8345 1302.48765
1084.9956 1300.99263
1085.1567 1306.93174
1085.3178 1284.97751
1085.4789 1300.17344
1085.6400 1284.32216
1085.8010 1289.19633
1085.9621 1288.64338
1086.1231 1302.42621
1086.2841 1276.58084
1086.4451 1289.93360
1086.6061 1285.14135
1086.7670 1294.07049
1086.9280 1284.60888
1087.0889 1281.47549
1087.2498 1277.05187
1087.4107 1275.45446
1087.5716 1280.45150
1087.7325 1271.89099
1087.8933 1270.45741
1088.0542 1301.21790
1088.2150 1269.43343
1088.3758 1272.34155
1088.5366 1269.22863
1088.6974 1267.61074
1088.8582 1267.07827
1089.0189 1272.68970
1089.1796 1269.39247
1089.3404 1285.22327
1089.5011 1258.64063
1089.6618 1280.30814
1089.8224 1257.96480
1089.9831 1274.06184
1090.1438 1261.58971
1090.3044 1273.44745
1090.4650 1263.02329
1090.6256 1273.22217
1090.7862 1256.94082
1090.9468 1261.18012
1091.1073 1254.25798
1091.2679 1268.22513
1091.4284 1267.03731
1091.5889 1262.42938
1091.7494 1257.02274
1091.9099 1263.08473
1092.0703 1263.61720
1092.2308 1264.78454
1092.3912 1257.32993
1092.5516 1263.80152
1092.7121 1253.64359
1092.8724 1261.30299
1093.0328 1248.97422
1093.1932 1267.79505
1093.3535 1251.24747
1093.5139 1271.33804
1093.6742 1261.85595
1093.8345 1258.04672
1093.9948 1262.01978
1094.1550 1254.85189
1094.3153 1253.70503
1094.4755 1254.64710
1094.6358 1253.54119
1094.7960 1254.87237
1094.9562 1254.50374
1095.1163 1260.36093
1095.2765 1248.23695
1095.4367 1255.44580
1095.5968 1257.43233
1095.7569 1261.18012
1095.9170 1251.43178
1096.0771 1256.28547
1096.2372 1253.19304
1096.3973 1256.53123
1096.5573 1246.51666
1096.7173 1258.78399
1096.8773 1252.84488
1097.0374 1255.48676
1097.1973 1249.85485
1097.3573 1254.42182
1097.5173 1254.42182
1097.6772 1259.64414
1097.8371 1248.76942
1097.9970 1253.39783
1098.1569 1253.35688
1098.3168 1248.62607
1098.4767 1254.23750
1098.6365 1256.57219
1098.7964 1244.87828
1098.9562 1266.50483
1099.1160 1252.10761
1099.2758 1259.54174
1099.4356 1246.20946
1099.5953 1257.08418
1099.7551 1254.70853
1099.9148 1254.40134
1100.0745 1245.82035
1100.2342 1252.55817
1100.3939 1245.32884
1100.5536 1255.44580
1100.7132 1258.53824
1100.8729 1257.22754
1101.0325 1254.11462
1101.1921 1258.39488
1101.3517 1246.18898
1101.5113 1260.34045
1101.6709 1245.90227
1101.8304 1251.32939
1101.9899 1241.45818
1102.1495 1249.40430
1102.3090 1244.18198
1102.4685 1260.99580
1102.6279 1250.61260
1102.7874 1249.81389
1102.9468 1244.26389
1103.1063 1257.12514
1103.2657 1252.06665
1103.4251 1248.50319
1103.5845 1246.61906
1103.7438 1256.87938
1103.9032 1250.96075
1104.0625 1254.03270
1104.2219 1247.86832
1104.3812 1250.85835
1104.5405 1249.28142
1104.6997 1259.39838
1104.8590 1240.41371
1105.0183 1254.11462
1105.1775 1245.34932
1105.3367 1256.12163
1105.4959 1249.85485
1105.6551 1257.92385
1105.8143 1241.35578
1105.9735 1253.76647
1106.1326 1236.87073
1106.2917 1261.97882
1106.4508 1248.42127
1106.6099 1258.14912
1106.7690 1246.12755
1106.9281 1253.60263
1107.0872 1252.94728
1107.2462 1256.08067
1107.4052 1254.38086
1107.5642 1253.11112
1107.7232 1244.55061
1107.8822 1248.23695
1108.0412 1250.42828
1108.2001 1250.65356
1108.3591 1241.64249
1108.5180 1250.18252
1108.6769 1250.16204
1108.8358 1254.31942
1108.9947 1245.28788
1109.1535 1252.80392
1109.3124 1247.97072
1109.4712 1255.46628
1109.6300 1250.83787
1109.7888 1253.86887
1109.9476 1238.40670
1110.1064 1259.29598
1110.2651 1251.92330
1110.4239 1260.13565
1110.5826 1242.89175
1110.7413 1254.79045
1110.9000 1248.64655
1111.0587 1253.47975
1111.2173 1249.13806
1111.3760 1257.04322
1111.5346 1254.66757
1111.6932 1252.00522
1111.8518 1243.05559
1112.0104 1253.43879
1112.1690 1244.93972
1112.3276 1259.60318
1112.4861 1256.71554
1112.6446 1258.23104
1112.8032 1247.45872
1112.9617 1256.81794
1113.1201 1252.29193
1113.2786 1255.89636
1113.4371 1246.90577
1113.5955 1253.50023
1113.7539 1240.67995
1113.9123 1252.55817
1114.0707 1242.91223
1114.2291 1256.32643
1114.3875 1251.10411
1114.5458 1255.89636
1114.7042 1248.31887
1114.8625 1253.09064
1115.0208 1246.00467
1115.1791 1261.69211
1115.3374 1245.98419
1115.4956 1250.05965
1115.6539 1244.30485
1115.8121 1258.04672
1115.9703 1251.45226
1116.1285 1249.36334
1116.2867 1242.62552
1116.4449 1244.67349
1116.6030 1248.58511
1116.7612 1249.91629
1116.9193 1237.64895
1117.0774 1254.64710
1117.2355 1246.80337
1117.3936 1252.64009
1117.5516 1250.67404
1117.7097 1248.56463
1117.8677 1239.92220
1118.0257 1254.09414
1118.1837 1250.42828
1118.3417 1253.47975
1118.4997 1259.27550
1118.6577 1257.20706
1118.8156 1254.64710
1118.9735 1245.28788
1119.1315 1243.91574
1119.2894 1260.93436
1119.4472 1247.13105
1119.6051 1256.06019
1119.7630 1247.52016
1119.9208 1257.24802
1120.0786 1245.36980
1120.2364 1262.85945
1120.3942 1252.76296
1120.5520 1254.40134
1120.7098 1258.66111
1120.8675 1261.46683
1121.0253 1254.05318
1121.1830 1255.91684
1121.3407 1241.33530
1121.4984 1259.29598
1121.6560 1250.05965
