# Averages = 100
# wavelength [µm]	intensity
446.8250 14.33578
447.0374 36746.70328
447.2498 1233.83973
447.4621 1221.65432
447.6745 1230.95210
447.8868 1240.76187
448.0992 1239.45117
448.3115 1236.80929
448.5238 1246.29138
448.7360 1238.75486
448.9483 1250.01869
449.1606 1239.67644
449.3728 1263.82200
449.5850 1229.45708
449.7972 1238.46814
450.0094 1234.29029
450.2216 1257.08418
450.4337 1250.53068
450.6459 1756.35848
450.8580 2135.88805
451.0701 2179.10019
451.2822 2199.02692
451.4943 2184.30203
451.7064 2165.97271
451.9184 2162.34780
452.1305 2248.97688
452.3425 2360.61166
452.5545 2258.93001
452.7665 2273.26579
452.9785 2374.76312
453.1905 2416.70552
453.4024 2370.70815
453.6143 2490.39144
453.8263 2453.65088
454.0382 2674.60623
454.2501 2467.22891
454.4619 2437.34905
454.6738 2579.82623
454.8856 2715.66800
455.0975 2502.22870
455.3093 2495.24512
455.5211 2576.20133
455.7329 2536.12258
455.9446 2596.55814
456.1564 2605.30297
456.3681 2699.44809
456.5798 2817.98452
456.7916 2735.92241
457.0033 2710.73240
457.2149 2683.20770
457.4266 2731.49880
457.6382 2759.51501
457.8499 2741.00138
458.0615 2856.58873
458.2731 2745.73218
458.4847 2877.55993
458.6963 2970.08716
458.9078 2994.70374
459.1194 3178.44750
459.3309 3202.79785
459.5424 3032.07917
459.7539 2935.53793
459.9654 2939.16283
460.1769 2994.88806
460.3883 2973.77350
460.5998 2834.14299
460.8112 2812.61884
461.0226 2883.74480
461.2340 2976.21059
461.4454 2946.31024
461.6567 2919.21562
461.8681 2920.38296
462.0794 2879.71030
462.2907 3022.06461
462.5020 3279.71955
462.7133 3384.80083
462.9246 3132.04053
463.1359 2986.49139
463.3471 2853.90589
463.5583 2929.12778
463.7696 3335.71102
463.9808 3171.34105
464.1919 3092.88337
464.4031 3094.70606
464.6143 3111.99091
464.8254 3033.55371
465.0365 2968.14159
465.2476 3262.78285
465.4587 3436.94212
465.6698 3001.11389
465.8809 3077.07305
466.0919 3049.65075
466.3030 3117.33611
466.5140 3146.19199
466.7250 3072.13744
466.9360 3207.77441
467.1469 3134.51857
467.3579 2940.65785
467.5688 2924.76561
467.7798 3171.05433
467.9907 3294.36253
468.2016 3174.57684
468.4125 3126.42909
468.6233 2980.53180
468.8342 3014.56904
469.0450 3201.01612
469.2559 3299.15478
469.4667 3239.59985
469.6775 2984.11575
469.8882 3155.53073
470.0990 3128.49754
470.3098 3425.69877
470.5205 3228.35650
470.7312 3333.31490
470.9419 3539.52487
471.1526 3428.89360
471.3633 3133.65842
471.5739 3164.54179
471.7846 3146.00768
471.9952 3078.99814
472.2058 3197.32977
472.4164 3180.63883
472.6270 3145.00417
472.8376 3289.11973
473.0481 3479.78562
473.2587 3572.16949
473.4692 3471.98286
473.6797 3359.85657
473.8902 3093.62063
474.1007 3072.60848
474.3111 3109.61527
474.5216 3037.58821
474.7320 3150.86136
474.9424 3339.99127
475.1528 3383.06006
475.3632 3255.81976
475.5736 3216.45780
475.7840 3210.82589
475.9943 3260.40721
476.2046 3279.10516
476.4149 3344.31249
476.6252 3385.00563
476.8355 3480.95296
477.0458 3572.57909
477.2561 3555.60143
477.4663 3389.98219
477.6765 3407.36945
477.8867 3434.87367
478.0969 3413.65671
478.3071 3390.63754
478.5173 3521.74850
478.7274 3474.82954
478.9375 3537.66122
479.1477 3501.61697
479.3578 3650.77053
479.5679 3602.90950
479.7779 3631.80634
479.9880 3623.30727
480.1980 3683.14892
480.4081 3674.71129
480.6181 3548.63833
480.8281 3682.26829
481.0381 3606.06337
481.2480 3589.90490
481.4580 3686.89670
481.6679 3650.85245
481.8778 3604.89603
482.0877 3613.62038
482.2976 3517.52969
482.5075 3608.45950
482.7174 3702.17455
482.9272 3762.83538
483.1371 3633.07608
483.3469 3681.83822
483.5567 3807.76782
483.7665 3683.37420
483.9762 3755.05310
484.1860 3897.20261
484.3957 3889.70705
484.6055 3725.89003
484.8152 3814.89475
485.0249 3928.14742
485.2346 3921.71680
485.4442 3927.71735
485.6539 3956.04075
485.8635 3920.83617
486.0732 3813.72741
486.2828 3832.24104
486.4924 3839.28606
486.7019 3958.64167
486.9115 3914.99946
487.1210 3910.71921
487.3306 4051.57850
487.5401 4045.20931
487.7496 4086.35301
487.9591 4126.22696
488.1686 4075.15062
488.3780 4025.46690
488.5875 4119.83730
488.7969 4233.95011
489.0063 4215.04736
489.2157 4260.94234
489.4251 4177.11898
489.6345 4151.27362
489.8438 4276.65026
490.0531 4080.63917
490.2625 4173.61695
490.4718 4254.67556
490.6811 4324.81849
490.8903 4359.26532
491.0996 4371.75793
491.3089 4386.05275
491.5181 4435.20400
491.7273 4435.47024
491.9365 4417.91915
492.1457 4508.09121
492.3549 4530.84414
492.5640 4440.81544
492.7732 4506.06372
492.9823 4565.82345
493.1914 4689.70508
493.4005 4668.16045
493.6096 4628.63465
493.8187 4579.46292
494.0277 4691.11818
494.2368 4684.68756
494.4458 4714.46502
494.6548 4799.70148
494.8638 4841.02949
495.0728 4815.94187
495.2817 4829.90902
495.4907 4860.95623
495.6996 4891.55288
495.9085 4906.74881
496.1174 4978.05908
496.3263 4976.64598
496.5352 4987.04966
496.7440 5084.55345
496.9529 5122.35896
497.1617 5067.53483
497.3705 5102.06359
497.5793 5223.79485
497.7881 5117.38239
497.9969 5224.47068
498.2056 5286.95421
498.4144 5306.88094
498.6231 5375.40598
498.8318 5380.19822
499.0405 5399.67441
499.2492 5378.94896
499.4578 5442.74319
499.6665 5442.57935
499.8751 5579.81374
500.0837 5566.05139
500.2923 5602.09564
500.5009 5607.46132
500.7095 5738.85899
500.9180 5704.12544
501.1266 5776.93073
501.3351 5792.37241
501.5436 5865.89449
501.7521 5847.48325
501.9606 5928.00938
502.1691 5981.99384
502.3775 5943.38963
502.5860 6012.07850
502.7944 6039.09121
503.0028 6107.26809
503.2112 6114.88653
503.4196 6174.48242
503.6279 6240.30414
503.8363 6171.14423
504.0446 6348.10921
504.2529 6297.54487
504.4612 6385.73040
504.6695 6477.33604
504.8778 6484.27866
505.0860 6506.47864
505.2943 6522.39135
505.5025 6603.65475
505.7107 6625.26083
505.9189 6694.78936
506.1271 6753.15647
506.3353 6739.70132
506.5434 6729.54339
506.7516 6850.37355
506.9597 6893.93385
507.1678 6966.80057
507.3759 6944.12956
507.5840 6981.81218
507.7920 7075.83443
508.0001 7072.12761
508.2081 7196.88986
508.4161 7172.04800
508.6241 7374.94027
508.8321 7341.68125
509.0401 7304.81782
509.2480 7458.86602
509.4560 7452.14869
509.6639 7549.30433
509.8718 7541.29677
510.0797 7684.81842
510.2876 7715.12835
510.4955 7794.09803
510.7033 7840.27973
510.9112 7872.69907
511.1190 7984.88680
511.3268 7956.39955
511.5346 8010.24065
511.7424 8050.68803
511.9501 8195.97094
512.1579 8209.75377
512.3656 8244.85595
512.5733 8212.35469
512.7810 8382.29513
512.9887 8453.50301
513.1964 8487.45833
513.4040 8537.26493
513.6117 8577.75327
513.8193 8711.73139
514.0269 8733.56273
514.2345 8830.80029
514.4421 8809.82909
514.6497 8765.26529
514.8572 8988.94444
515.0647 9056.99844
515.2723 9110.98290
515.4798 9164.02529
515.6873 9258.96912
515.8947 9322.02607
516.1022 9275.94678
516.3097 9377.83322
516.5171 9503.92666
516.7245 9549.78068
516.9319 9646.19905
517.1393 9706.77796
517.3467 9702.19051
517.5540 9717.38644
517.7614 9959.82498
517.9687 9973.56685
518.1760 9999.14598
518.3833 10151.98589
518.5906 10152.47740
518.7978 10358.46210
519.0051 10324.73205
519.2123 10486.58302
519.4196 10302.38872
519.6268 10502.43430
519.8340 10551.27836
520.0411 10630.73955
520.2483 10868.85687
520.4554 10798.44771
520.6626 11108.77641
520.8697 11046.39528
521.0768 11293.72847
521.2839 11199.25567
521.4909 11226.98517
521.6980 11423.77448
521.9050 11637.78722
522.1121 11520.31573
522.3191 11783.68451
522.5261 11760.56295
522.7331 11818.52046
522.9400 12008.36716
523.1470 12031.24298
523.3539 12157.29545
523.5608 12184.69727
523.7677 12160.77700
523.9746 12297.33555
524.1815 12600.10725
524.3884 12505.08150
524.5952 12525.45879
524.8020 12836.64765
525.0089 12751.41119
525.2157 12895.50627
525.4225 12982.79070
525.6292 13017.77000
525.8360 13118.85774
526.0427 13215.56282
526.2494 13401.35455
526.4562 13323.83893
526.6629 13482.35171
526.8695 13518.55980
527.0762 13760.05627
527.2829 13833.20972
527.4895 13938.55723
527.6961 14068.02982
527.9027 14183.67861
528.1093 14252.42892
528.3159 14296.35785
528.5224 14236.76196
528.7290 14683.93594
528.9355 14493.16765
529.1420 14922.93389
529.3485 14795.24304
529.5550 15022.87477
529.7615 14978.31097
529.9680 15167.54328
530.1744 15187.81817
530.3808 15399.29142
530.5872 15331.19646
530.7936 15489.27917
531.0000 15581.80640
531.2064 15743.80072
531.4127 15861.39509
531.6191 15970.18319
531.8254 16090.52183
532.0317 16283.82960
532.2380 16240.14643
532.4443 16352.37512
532.6505 16182.88522
532.8568 16483.44512
533.0630 16801.43323
533.2692 16728.21834
533.4754 16917.79881
533.6816 17145.53294
533.8878 17023.10536
534.0939 17383.03587
534.3001 17424.32292
534.5062 17491.00478
534.7123 17401.03752
534.9184 17546.58666
535.1245 17685.66421
535.3306 17687.81458
535.5366 18100.99228
535.7426 18104.49430
535.9487 18133.57546
536.1547 18151.41327
536.3607 18459.87832
536.5666 18339.78543
536.7726 18480.46041
536.9785 18696.70543
537.1845 18876.04605
537.3904 18778.78801
537.5963 18879.32280
537.8022 19089.21912
538.0080 19260.28595
538.2139 19314.08609
538.4197 19490.58003
538.6256 19425.67990
538.8314 19484.23133
539.0372 19672.05054
539.2430 20049.26591
539.4487 19829.66222
539.6545 20241.48825
539.8602 20125.02027
540.0659 20330.04242
540.2716 20762.14335
540.4773 20836.42318
540.6830 20930.77310
540.8887 21064.32114
541.0943 20779.91972
541.2999 20952.60444
541.5056 20983.61069
541.7112 21253.24626
541.9167 21100.89786
542.1223 21187.62934
542.3279 21599.88545
542.5334 21712.78996
542.7389 21946.52464
542.9444 22010.91277
543.1499 22136.41230
543.3554 22045.97400
543.5609 22423.84471
543.7663 22447.60115
543.9718 22318.02617
544.1772 22541.72580
544.3826 22528.35256
544.5880 23183.74352
544.7934 23002.72356
544.9987 23078.31409
545.2041 23473.83829
545.4094 23419.09609
545.6147 23472.79383
545.8200 23801.63617
546.0253 23788.48821
546.2306 24053.37249
546.4358 23857.64812
546.6411 24213.38029
546.8463 24064.22672
547.0515 24327.14495
547.2567 24525.22449
547.4619 24548.05934
547.6670 24663.23710
547.8722 24849.82754
548.0773 25125.25885
548.2824 25138.81641
548.4876 25312.40224
548.6926 25383.46675
548.8977 25548.47160
549.1028 25617.38574
549.3078 25810.38632
549.5129 25783.43505
549.7179 25954.74764
549.9229 26148.17828
550.1279 26035.13041
550.3328 26396.78121
550.5378 26117.15156
550.7427 26489.65659
550.9476 26666.58061
551.1526 26048.83132
551.3575 26714.60548
551.5623 26819.13381
551.7672 26718.25087
551.9720 26828.26775
552.1769 27022.92718
552.3817 27249.22772
552.5865 27078.63193
552.7913 27338.02765
552.9961 27204.74584
553.2008 27429.73569
553.4056 27687.84119
553.6103 27647.61908
553.8150 27902.87791
554.0197 27966.67214
554.2244 27855.87703
554.4291 27959.15609
554.6337 28347.79912
554.8384 28155.20814
555.0430 28376.24541
555.2476 28120.43363
555.4522 28154.38895
555.6568 28539.42756
555.8613 28726.34566
556.0659 28866.77488
556.2704 28544.83419
556.4750 28903.76120
556.6795 29159.79825
556.8839 28828.37547
557.0884 29318.53631
557.2929 29202.00689
557.4973 29044.06754
557.7018 29138.25362
557.9062 29390.93200
558.1106 29426.66906
558.3150 29207.41352
558.5193 29628.51686
558.7237 29706.38063
558.9280 29479.42473
559.1323 29691.75813
559.3367 29531.17690
559.5410 29825.71577
559.7452 29541.88778
559.9495 29908.12603
560.1537 29883.52993
560.3580 29822.68477
560.5622 30019.02354
560.7664 30272.68495
560.9706 30333.20242
561.1748 30478.73108
561.3789 30428.86305
561.5831 30468.85987
561.7872 30407.74849
561.9913 30678.57187
562.1954 30570.82824
562.3995 30681.39807
562.6036 30725.94139
562.8076 30544.45040
563.0117 30784.39042
563.2157 30694.91467
563.4197 30857.70770
563.6237 31087.14164
563.8277 30777.79596
564.0316 30600.21659
564.2356 31038.50238
564.4395 31046.03891
564.6434 31223.37252
564.8473 31476.35810
565.0512 31425.34320
565.2551 31408.63177
565.4590 31463.12822
565.6628 31694.40533
565.8666 31913.23080
566.0705 31645.45888
566.2743 31631.45077
566.4780 31695.61364
566.6818 31591.57682
566.8856 32173.48666
567.0893 31751.21599
567.2930 31960.06784
567.4967 31670.56698
567.7004 31880.17658
567.9041 31949.88944
568.1078 31955.35751
568.3114 32211.70176
568.5151 32136.25459
568.7187 31871.90279
568.9223 32065.82495
569.1259 32252.00579
569.3295 32599.64848
569.5330 32558.75055
569.7366 32506.54782
569.9401 32619.12466
570.1436 32710.05448
570.3471 32801.78300
570.5506 32737.66110
570.7541 32642.06191
570.9575 32621.11119
571.1609 32326.75665
571.3644 32967.70943
571.5678 32920.46279
571.7712 33277.75141
571.9746 33156.04063
572.1779 32952.86165
572.3813 32828.52947
572.5846 33073.24125
572.7879 32908.50265
572.9912 33571.06150
573.1945 33427.88800
573.3978 33040.26896
573.6010 33373.41203
573.8043 33921.83759
574.0075 33121.26612
574.2107 33249.94000
574.4139 33228.68208
574.6171 33321.55747
574.8203 33149.73289
575.0234 33578.35227
575.2266 33073.15934
575.4297 33170.11018
575.6328 33404.74596
575.8359 33799.02090
576.0390 33078.29974
576.2420 33246.23318
576.4451 32980.32491
576.6481 33323.62591
576.8512 33792.26260
577.0542 33079.44660
577.2571 33549.20967
577.4601 33569.87368
577.6631 33455.86326
577.8660 33271.05456
578.0689 33238.47137
578.2719 33359.48585
578.4748 33165.91184
578.6776 33131.23973
578.8805 33287.84790
579.0834 32784.45718
579.2862 33367.14525
579.4890 33686.23926
579.6918 33462.84683
579.8946 33119.93494
580.0974 33513.82077
580.3002 33223.00921
580.5029 33161.18103
580.7057 33494.22171
580.9084 33052.78205
581.1111 33598.11517
581.3138 33368.31259
581.5164 33097.24345
581.7191 32920.87238
581.9217 33094.62205
582.1244 33145.00208
582.3270 33138.94009
582.5296 33085.46763
582.7322 33347.11612
582.9347 33190.85610
583.1373 32956.60943
583.3398 33202.03801
583.5424 32890.74676
583.7449 32844.99514
583.9474 32762.74871
584.1498 32683.00081
584.3523 33109.71558
584.5548 32726.92974
584.7572 32974.73396
584.9596 33210.04557
585.1620 33778.86889
585.3644 32866.74457
585.5668 32932.44340
585.7691 33184.99891
585.9715 33051.73758
586.1738 33327.29178
586.3761 33262.61693
586.5784 33467.55716
586.7807 33445.93061
586.9830 33426.72066
587.1852 33385.02402
587.3875 33057.26710
587.5897 33683.80218
587.7919 33394.28084
587.9941 33107.60617
588.1963 33263.33371
588.3984 33579.86776
588.6006 33012.43706
588.8027 33656.85091
589.0048 33300.38147
589.2069 33373.92403
589.4090 33420.49484
589.6111 33654.98726
589.8131 33587.54765
590.0152 33761.82979
590.2172 33667.35699
590.4192 33948.25638
590.6212 33613.04486
590.8232 33448.28577
591.0252 33833.61109
591.2271 33998.67737
591.4291 33937.83222
591.6310 33759.59750
591.8329 33713.70252
592.0348 34063.22935
592.2367 34133.59755
592.4385 34399.77205
592.6404 34572.82541
592.8422 34674.24083
593.0440 34803.05806
593.2458 35048.62999
593.4476 35209.43650
593.6494 35238.74293
593.8512 35375.17861
594.0529 35687.12521
594.2546 35566.95040
594.4563 35480.13701
594.6580 35247.95879
594.8597 35220.20881
595.0614 35245.09163
595.2630 35627.57028
595.4647 35569.38749
595.6663 35293.44418
595.8679 35649.66786
596.0695 36123.56783
596.2711 35857.76197
596.4727 35949.75672
596.6742 36271.88173
596.8757 36466.60260
597.0773 36299.14019
597.2788 35924.50527
597.4802 36266.94612
597.6817 36763.90622
597.8832 36565.60140
598.0846 36910.80702
598.2860 36753.66638
598.4875 36421.99784
598.6889 37049.57738
598.8902 37139.42177
599.0916 37206.06267
599.2930 36825.57056
599.4943 37347.88451
599.6956 37352.00093
599.8969 37245.36319
600.0982 36832.53365
600.2995 36868.55742
600.5008 37716.98992
600.7020 37115.84965
600.9032 37698.74251
601.1045 37510.55467
601.3057 37150.21456
601.5068 37989.96367
601.7080 37967.23122
601.9092 37617.99111
602.1103 38183.47624
602.3115 38005.28248
602.5126 38139.91594
602.7137 37996.82437
602.9147 38029.53043
603.1158 38327.48940
603.3169 38612.54617
603.5179 38458.27268
603.7189 38291.48611
603.9199 38465.07194
604.1209 38440.53727
604.3219 38322.90195
604.5229 38421.57308
604.7238 38693.62525
604.9247 38675.23449
605.1257 38855.10759
605.3266 39182.41395
605.5275 38739.72503
605.7283 38905.01659
605.9292 39134.83964
606.1300 38514.85806
606.3309 38722.52209
606.5317 39142.68336
606.7325 39345.53467
606.9332 39211.53607
607.1340 39428.96891
607.3348 39379.71526
607.5355 38799.15708
607.7362 39896.76593
607.9369 39065.96645
608.1376 39462.90375
608.3383 39212.41670
608.5390 40098.42942
608.7396 39666.14417
608.9402 40217.58024
609.1409 40289.62778
609.3415 39976.00185
609.5421 39830.98518
609.7426 40152.18860
609.9432 39571.75329
610.1437 39489.22015
610.3443 40427.37416
610.5448 40080.53017
610.7453 40476.09533
610.9457 40331.22202
611.1462 40509.02667
611.3467 40314.40820
611.5471 40662.74721
611.7475 40052.35012
611.9479 40883.06768
612.1483 40365.91462
612.3487 41012.60171
612.5491 40745.48514
612.7494 41491.80592
612.9497 40749.99068
613.1501 41145.49440
613.3504 40975.18532
613.5506 41743.13264
613.7509 41313.24352
613.9512 41146.86654
614.1514 41415.37572
614.3516 41829.22925
614.5519 41552.38483
614.7521 41786.44718
614.9522 41414.94565
615.1524 41353.93666
615.3526 41909.71442
615.5527 42518.78033
615.7528 42007.25917
615.9529 42043.07814
616.1530 42465.20546
616.3531 42460.57705
616.5532 42404.70847
616.7532 42066.91650
616.9532 42431.80309
617.1533 42085.96261
617.3533 42605.04077
617.5532 42220.06360
617.7532 42482.30600
617.9532 41635.81908
618.1531 42777.09062
618.3530 42162.51568
618.5530 42479.99180
618.7528 42525.76390
618.9527 42612.16770
619.1526 42177.58873
619.3524 42337.49413
619.5523 42629.10440
619.7521 42742.76667
619.9519 42747.84563
620.1517 42793.78157
620.3515 43152.79049
620.5512 43441.75888
620.7510 43075.95070
620.9507 42806.82713
621.1504 42906.35841
621.3501 43018.79190
621.5498 43264.83486
621.7495 43362.09290
621.9492 42958.62257
622.1488 42668.87595
622.3484 42632.48355
622.5480 42607.94888
622.7476 43420.05041
622.9472 42613.68320
623.1468 42939.94510
623.3463 44103.99006
623.5459 43723.80514
623.7454 43415.93400
623.9449 43388.63457
624.1444 43338.09070
624.3439 43804.29031
624.5433 43529.28907
624.7428 43289.67672
624.9422 43447.94375
625.1416 43517.59516
625.3410 43488.41161
625.5404 43421.27919
625.7398 43424.96554
625.9391 43660.13379
626.1385 43332.99126
626.3378 43420.15281
626.5371 44117.77289
626.7364 43420.74672
626.9357 43843.30411
627.1350 43897.88248
627.3342 43546.14385
627.5335 43393.67258
627.7327 43599.43200
627.9319 43572.76744
628.1311 44587.00349
628.3303 43813.77240
628.5294 44055.94471
628.7286 44083.79708
628.9277 44426.54513
629.1268 44074.13067
629.3259 44748.99781
629.5250 44768.14632
629.7241 44762.22769
629.9231 43896.81754
630.1222 44859.21949
630.3212 44700.97295
630.5202 44237.59954
630.7192 44851.49865
630.9182 44192.56470
631.1171 44461.74972
631.3161 44178.12652
631.5150 44199.20012
631.7140 44533.67438
631.9129 44603.65347
632.1118 45067.31360
632.3106 44959.01701
632.5095 44697.65524
632.7083 44567.36347
632.9072 44752.56128
633.1060 44877.52833
633.3048 44881.54235
633.5036 44324.96588
633.7023 44572.70866
633.9011 45104.17703
634.0998 44917.60708
634.2986 45136.67830
634.4973 44785.86125
634.6960 45030.08153
634.8947 44772.11938
635.0933 45116.01429
635.2920 44691.90045
635.4906 44254.24952
635.6892 45162.54414
635.8878 45089.84125
636.0864 45090.53756
636.2850 44851.82632
636.4836 44865.99827
636.6821 44892.97002
636.8806 44992.80849
637.0792 45003.41697
637.2777 44972.39025
637.4761 45016.31918
637.6746 44718.68788
637.8731 45156.72791
638.0715 44642.44200
638.2699 45376.10633
638.4683 45039.42026
638.6667 44327.91496
638.8651 45250.09481
639.0635 45443.56642
639.2618 45471.41879
639.4602 45351.20303
639.6585 45243.99186
639.8568 45405.61755
640.0551 45526.26339
640.2534 45433.16273
640.4516 45275.75586
640.6499 45387.32919
640.8481 46144.27892
641.0463 45894.05810
641.2445 46223.80155
641.4427 46002.25229
641.6409 45757.60194
641.8390 46010.21889
642.0372 46347.62174
642.2353 46147.16656
642.4334 45573.79675
642.6315 45937.08592
642.8296 45858.71016
643.0277 45651.29189
643.2257 46322.02213
643.4237 46378.56655
643.6218 46357.75919
643.8198 45989.04289
644.0178 46093.14114
644.2157 45982.75563
644.4137 45915.13170
644.6116 46736.32621
644.8096 46997.21695
645.0075 45736.28259
645.2054 46522.49779
645.4033 46382.21193
645.6011 46230.02737
645.7990 46237.83014
645.9968 46512.56514
646.1947 46418.62482
646.3925 46530.64871
646.5903 46410.16671
646.7881 46637.53220
646.9858 46342.97285
647.1836 46187.94162
647.3813 46063.69135
647.5790 46609.16783
647.7767 47175.77934
647.9744 46372.70936
648.1721 46349.46491
648.3698 46875.38329
648.5674 46033.42237
648.7650 46500.91220
648.9627 46139.85531
649.1603 47077.98884
649.3578 46746.83229
649.5554 46808.84478
649.7530 47318.97332
649.9505 46125.60145
650.1480 46800.53003
650.3455 47193.82195
650.5430 46449.54915
650.7405 46635.70950
650.9380 46392.02170
651.1354 46819.12559
651.3329 46338.59020
651.5303 46870.67296
651.7277 46922.01554
651.9251 46991.09352
652.1225 46812.12153
652.3198 46708.08472
652.5172 46943.53969
652.7145 47252.49625
652.9118 46970.12232
653.1091 46940.57013
653.3064 47358.92919
653.5037 47023.00087
653.7009 46724.79615
653.8982 47123.53566
654.0954 47515.27112
654.2926 47661.92617
654.4898 47528.56244
654.6870 47397.59484
654.8841 48018.47753
655.0813 47475.35621
655.2784 47471.71083
655.4755 47925.64310
655.6726 48194.97147
655.8697 47532.28974
656.0668 47940.22464
656.2639 47539.99011
656.4609 47548.36630
656.6579 47652.77175
656.8550 47866.33393
657.0520 47811.40740
657.2490 47100.84417
657.4459 47771.49249
657.6429 47954.90858
657.8398 47810.01479
658.0367 48169.16707
658.2337 48072.40054
658.4305 48369.97040
658.6274 48367.28756
658.8243 48270.62344
659.0211 48553.75512
659.2180 48378.85859
659.4148 48592.62556
659.6116 48836.14953
659.8084 48695.94559
660.0052 49108.83657
660.2019 48727.11567
660.3987 48530.08060
660.5954 48609.48035
660.7921 48623.61133
660.9888 48216.94618
661.1855 48576.75381
661.3822 48780.32190
661.5788 48169.00323
661.7755 48493.60628
661.9721 48191.24417
662.1687 48617.36503
662.3653 48545.19461
662.5619 48723.92084
662.7584 48081.12489
662.9550 48409.82387
663.1515 48836.66152
663.3480 48404.60155
663.5445 49039.96338
663.7410 48275.53856
663.9375 48442.22274
664.1340 48477.32492
664.3304 48762.32025
664.5268 48459.28232
664.7233 48914.15666
664.9197 48808.13332
665.1160 48898.40778
665.3124 48745.01492
665.5088 48889.72439
665.7051 48972.03225
665.9014 48902.56515
666.0977 48560.30862
666.2940 48585.80583
666.4903 48840.22499
666.6866 49024.39882
666.8828 48659.43030
667.0791 48635.71483
667.2753 49082.92976
667.4715 48940.04298
667.6677 49442.59403
667.8639 49706.57721
668.0600 48903.52770
668.2562 49145.57713
668.4523 49036.35895
668.6484 49081.76242
668.8445 48504.62435
669.0406 49634.77542
669.2367 49592.91494
669.4327 49761.07365
669.6287 49522.03474
669.8248 49333.66258
670.0208 49580.23801
670.2168 49356.84558
670.4128 49495.18587
670.6087 49478.26965
670.8047 49461.92686
671.0006 50268.00736
671.1965 49002.44459
671.3924 49740.49157
671.5883 49156.57472
671.7842 49354.94097
671.9801 48747.59536
672.1759 49155.24354
672.3717 48865.33308
672.5675 49655.37799
672.7633 49624.78133
672.9591 49881.00270
673.1549 50248.01918
673.3506 49546.44653
673.5464 49161.63320
673.7421 49817.55663
673.9378 49663.13979
674.1335 49333.17106
674.3292 49696.07113
674.5249 49198.10753
674.7205 48464.62752
674.9161 48815.73128
675.1118 48754.45605
675.3074 48786.81396
675.5030 48814.99401
675.6985 49222.04828
675.8941 49124.60593
676.0896 49253.46412
676.2852 49399.11566
676.4807 49092.12514
676.6762 49304.86814
676.8717 49656.99588
677.0671 49400.97931
677.2626 50055.48964
677.4580 49579.78746
677.6534 49602.06936
677.8489 49319.18344
678.0442 49371.50904
678.2396 48631.31169
678.4350 49033.43036
678.6303 49192.45513
678.8257 48952.69943
679.0210 49257.70342
679.2163 48860.84803
679.4116 49158.00830
679.6069 48847.29048
679.8021 48416.21354
679.9974 48457.00907
680.1926 48929.41403
680.3878 48757.26177
680.5830 48605.38441
680.7782 48658.22200
680.9734 48449.61591
681.1685 48486.45886
681.3636 48545.76804
681.5588 48529.34333
681.7539 48328.49903
681.9490 48424.34397
682.1441 48420.39139
682.3391 48068.67324
682.5342 48753.67783
682.7292 48726.60368
682.9242 48939.32619
683.1192 48665.88141
683.3142 49308.20632
683.5092 49189.69037
683.7041 49317.31979
683.8991 49098.82200
684.0940 48935.18930
684.2889 48434.17422
684.4838 48883.04801
684.6787 48488.93691
684.8736 47691.25308
685.0684 48601.16559
685.2633 48272.11845
685.4581 48298.33245
685.6529 48689.63784
685.8477 48936.62287
686.0425 48953.70293
686.2372 48556.56083
686.4320 48425.06076
686.6267 48450.86517
686.8214 48224.21647
687.0161 48092.96215
687.2108 48254.36257
687.4055 48102.42376
687.6002 48351.88684
687.7948 48357.76451
687.9894 48678.80409
688.1841 48281.72343
688.3787 48332.51305
688.5732 47984.66556
688.7678 48139.98351
688.9624 47877.94591
689.1569 47873.76805
689.3514 47703.52041
689.5459 47316.08568
689.7404 47569.58325
689.9349 47582.11682
690.1294 47691.99035
690.3238 47735.59160
690.5182 47912.98665
690.7127 48063.69668
690.9071 47777.77976
691.1015 47463.45751
691.2958 47776.44858
691.4902 48060.64520
691.6845 48880.61093
691.8789 48069.61530
692.0732 48036.84780
692.2675 47892.34313
692.4618 48127.42946
692.6560 47912.04459
692.8503 48441.07588
693.0445 48274.22786
693.2387 47628.17564
693.4329 48081.98504
693.6271 47992.75504
693.8213 48020.77125
694.0155 48345.94773
694.2096 48032.85427
694.4038 47600.50758
694.5979 47750.33698
694.7920 47709.76672
694.9861 47526.92407
695.1801 47434.86787
695.3742 47279.89808
695.5682 47331.40449
695.7623 47244.22246
695.9563 46957.77307
696.1503 47426.75791
696.3443 46812.96120
696.5382 47372.65058
696.7322 47163.22530
696.9261 47478.22337
697.1201 46990.88872
697.3140 47323.13070
697.5079 47613.71698
697.7017 46819.71950
697.8956 46904.25965
698.0894 46648.81650
698.2833 47178.89226
698.4771 47292.24733
698.6709 47583.20225
698.8647 46760.96327
699.0585 47645.27618
699.2522 46695.77643
699.4460 47072.25452
699.6397 47081.30655
699.8334 46846.46597
700.0271 46624.85527
700.2208 46872.76189
700.4144 47248.66655
700.6081 47088.92499
700.8017 46840.24014
700.9954 47386.78156
701.1890 47204.12323
701.3826 46464.60172
701.5761 46464.94987
701.7697 46618.95712
701.9632 46364.78372
702.1568 46664.70874
702.3503 46472.28160
702.5438 46125.54001
702.7373 45621.51442
702.9308 46541.21623
703.1242 46672.49102
703.3177 46328.37083
703.5111 46774.45939
703.7045 46775.60625
703.8979 46838.13074
704.0913 46625.03959
704.2847 46836.84052
704.4780 47054.23240
704.6713 45952.17945
704.8647 46167.93296
705.0580 45981.58829
705.2513 45361.62719
705.4445 45935.61139
705.6378 46010.36225
705.8311 45161.86831
706.0243 45291.79145
706.2175 46054.78269
706.4107 45782.01373
706.6039 45823.19838
706.7971 45903.41732
706.9902 46118.86363
707.1834 46034.11868
707.3765 45486.43040
707.5696 45503.34662
707.7627 45677.69020
707.9558 45730.60972
708.1489 45093.48664
708.3419 44617.10863
708.5349 44867.65712
708.7280 44812.21861
708.9210 45462.79684
709.1140 45285.74994
709.3069 44856.10658
709.4999 44656.67538
709.6929 44980.72548
709.8858 44716.88566
710.0787 44917.13605
710.2716 44280.70928
710.4645 44749.75556
710.6574 44768.55592
710.8502 45051.91287
711.0431 44605.78336
711.2359 44393.22468
711.4287 44343.37712
711.6215 44588.78522
711.8143 44436.19107
712.0071 44317.32696
712.1998 44274.05338
712.3925 44460.74621
712.5853 44682.74602
712.7780 44696.38550
712.9707 44421.91672
713.1633 44543.85278
713.3560 44531.81073
713.5487 44312.32992
713.7413 44409.17836
713.9339 44355.00959
714.1265 44148.00090
714.3191 44183.34885
714.5117 43659.82659
714.7042 44092.48047
714.8968 44271.04287
715.0893 44826.12432
715.2818 44757.33305
715.4743 44775.45757
715.6668 44343.86864
715.8592 44786.20941
716.0517 44391.36103
716.2441 44444.46486
716.4366 44186.68703
716.6290 44389.29258
716.8214 44200.40842
717.0137 44321.11570
717.2061 44175.46417
717.3984 44120.68100
717.5908 43689.39926
717.7831 43568.42575
717.9754 44252.16060
718.1677 43206.32439
718.3600 43899.47990
718.5522 43581.57371
718.7445 43560.76635
718.9367 43163.95192
719.1289 43363.60839
719.3211 43005.91017
719.5133 43171.83660
719.7054 43056.37212
719.8976 43432.82974
720.0897 43206.52919
720.2818 43197.25189
720.4740 43275.85293
720.6660 43452.53120
720.8581 43356.89106
721.0502 43081.23446
721.2422 42825.05405
721.4343 43009.71939
721.6263 43194.30282
721.8183 43025.48875
722.0103 43503.85329
722.2022 43204.39930
722.3942 43475.79612
722.5861 43160.90045
722.7781 43669.65684
722.9700 43114.26820
723.1619 42816.80074
723.3538 42644.27985
723.5456 42883.17540
723.7375 42677.25215
723.9293 43061.71732
724.1211 42633.36418
724.3129 42596.41882
724.5047 42122.43693
724.6965 42126.53287
724.8883 42305.50486
725.0800 42129.29763
725.2718 42525.76390
725.4635 42226.71950
725.6552 42191.84259
725.8469 42269.74732
726.0385 42612.88449
726.2302 42375.95498
726.4218 41572.63924
726.6135 41615.68755
726.8051 41451.27661
726.9967 41847.41521
727.1882 42131.44800
727.3798 42463.25989
727.5714 42160.91827
727.7629 42570.67585
727.9544 42517.32627
728.1459 41910.49265
728.3374 41680.89487
728.5289 42420.45735
728.7204 41904.51258
728.9118 42401.84131
729.1032 42782.41534
729.2946 42429.20217
729.4860 41725.56107
729.6774 42056.26706
729.8688 42036.72944
730.0602 41750.23909
730.2515 42093.82681
730.4428 42333.43915
730.6341 41930.13267
730.8254 41737.13209
731.0167 42247.85454
731.2080 42207.59147
731.3992 42042.34088
731.5905 41898.14340
731.7817 41894.64137
731.9729 41339.47800
732.1641 41622.26153
732.3553 41180.96522
732.5464 41627.91392
732.7376 41532.92913
732.9287 41558.54922
733.1198 41405.79123
733.3109 41511.85553
733.5020 41317.79001
733.6931 41853.88679
733.8841 41710.77473
734.0752 42027.84126
734.2662 41586.50399
734.4572 41362.45621
734.6482 40811.51166
734.8392 40809.81184
735.0302 40761.56170
735.2211 40572.30891
735.4120 40569.91278
735.6030 41118.58409
735.7939 40985.19989
735.9848 41045.45113
736.1756 40602.53693
736.3665 40746.61153
736.5574 40405.78857
736.7482 40375.35575
736.9390 40198.84133
737.1298 40527.27407
737.3206 40580.19359
737.5114 40910.61286
737.7021 40391.30943
737.8929 40313.17942
738.0836 40385.61607
738.2743 40727.62686
738.4650 40691.56213
738.6557 40335.35892
738.8463 39954.68249
739.0370 39873.29621
739.2276 39726.47733
739.4182 39806.30715
739.6088 40184.01403
739.7994 39900.96427
739.9900 40065.90767
740.1806 40017.84185
740.3711 40114.34213
740.5617 40399.43986
740.7522 40152.70059
740.9427 40132.83529
741.1332 40091.91688
741.3236 39615.45695
741.5141 39857.73165
741.7045 40179.05795
741.8949 40219.73061
742.0854 39969.28451
742.2758 40023.63760
742.4661 39544.24907
742.6565 39287.55667
742.8469 39570.81123
743.0372 39744.60186
743.2275 39348.29942
743.4178 39735.85703
743.6081 39771.40977
743.7984 39629.69033
743.9886 39652.99621
744.1789 39338.83781
744.3691 39157.71545
744.5593 39161.56563
744.7495 38884.65978
744.9397 39109.38339
745.1299 38787.31982
745.3200 38215.58839
745.5102 38578.59085
745.7003 38634.43896
745.8904 38784.53459
746.0805 38788.85580
746.2706 38692.76511
746.4607 38682.23855
746.6507 38735.03518
746.8408 38274.22173
747.0308 38729.44423
747.2208 38365.37682
747.4108 38431.09614
747.6007 38700.26067
747.7907 39138.38263
747.9806 38817.15873
748.1706 38874.31754
748.3605 38540.58055
748.5504 38516.02540
748.7403 38966.94716
748.9302 38410.49357
749.1200 38447.39797
749.3098 38404.92310
749.4997 38170.00060
749.6895 38265.64074
749.8793 38063.42431
750.0691 38564.25507
750.2588 38265.49739
750.4486 38093.52945
750.6383 38303.01617
750.8280 37606.42008
751.0177 37514.46629
751.2074 37600.31714
751.3971 37751.04764
751.5868 37738.80078
751.7764 37550.26478
751.9660 37262.83237
752.1557 37440.22742
752.3453 37589.25810
752.5348 37828.58373
752.7244 38089.86359
752.9140 38135.18513
753.1035 37794.56697
753.2930 37906.16079
753.4825 37607.48503
753.6720 37863.76784
753.8615 37845.52043
754.0510 37481.28919
754.2404 37447.98922
754.4299 37422.00050
754.6193 37369.59298
754.8087 37143.39483
754.9981 37245.52703
755.1875 36943.16492
755.3768 36789.28055
755.5662 37040.46392
755.7555 36941.19887
755.9448 37045.03089
756.1341 36932.57693
756.3234 36422.40743
756.5127 36514.23835
756.7019 36864.17477
756.8912 36885.92420
757.0804 36693.90665
757.2696 36784.05823
757.4588 36524.47819
757.6480 36290.62064
757.8371 35963.99010
758.0263 36044.63911
758.2154 36294.61418
758.4045 35995.85650
758.5936 35747.21261
758.7827 36148.92168
758.9718 36440.59339
759.1609 36027.49762
759.3499 35968.61851
759.5389 35398.09538
759.7280 35842.25884
759.9170 35907.60952
760.1059 35945.18975
760.2949 35805.68212
760.4839 36263.19834
760.6728 35969.04859
760.8617 35878.58981
761.0506 35449.02836
761.2395 35205.19720
761.4284 35611.04317
761.6173 35441.83999
761.8061 35455.19275
761.9950 35458.63334
762.1838 35166.49059
762.3726 35690.34052
762.5614 35220.33169
762.7502 35576.88305
762.9389 34858.86521
763.1277 34969.98799
763.3164 35462.62688
763.5051 35258.97686
763.6938 35505.98237
763.8825 35173.24889
764.0712 35884.38556
764.2598 35468.29975
764.4484 35624.31401
764.6371 35620.21807
764.8257 35366.92530
765.0143 35560.37642
765.2029 35167.37122
765.3914 35267.74217
765.5800 35619.41936
765.7685 34966.48597
765.9570 35065.54621
766.1455 34694.65907
766.3340 34245.58049
766.5225 34439.74840
766.7110 34374.64348
766.8994 34138.32836
767.0878 33958.14807
767.2762 34202.14307
767.4646 34124.32026
767.6530 34286.39650
767.8414 34426.27277
768.0298 34121.18686
768.2181 33950.83682
768.4064 33982.94897
768.5947 33991.75524
768.7830 33878.54353
768.9713 33815.46609
769.1596 33549.08679
769.3478 33445.09094
769.5360 33599.91738
769.7243 33399.01164
769.9125 33203.77878
770.1007 32993.39095
770.2888 33071.52096
770.4770 33198.18783
770.6651 33303.63774
770.8533 32918.74249
771.0414 32742.26903
771.2295 33100.45876
771.4176 33288.81045
771.6056 33343.40929
771.7937 33085.40619
771.9817 32795.92581
772.1698 33311.56338
772.3578 33291.61616
772.5458 32888.98551
772.7337 32394.48297
772.9217 32702.33363
773.1096 32499.87144
773.2976 32743.39541
773.4855 33041.47726
773.6734 32297.18398
773.8613 32387.29460
774.0492 32575.48245
774.2370 32323.60277
774.4249 32409.33075
774.6127 32738.07069
774.8005 32487.58363
774.9883 32461.12388
775.1761 32674.05119
775.3639 32167.11748
775.5516 32345.70036
775.7394 32030.23125
775.9271 32074.89745
776.1148 32009.40341
776.3025 31314.26137
776.4902 31512.19755
776.6778 31520.32799
776.8655 31915.09445
777.0531 32079.13674
777.2407 31982.00159
777.4283 31708.29056
777.6159 31878.72252
777.8035 31543.26524
777.9911 31348.95397
778.1786 31619.96167
778.3661 31167.72921
778.5536 31537.42853
778.7411 31585.63771
778.9286 31912.49353
779.1161 31612.50706
779.3036 31115.58793
779.4910 31156.21963
779.6784 31243.97509
779.8658 31454.97731
780.0532 30846.95587
780.2406 31215.87696
780.4280 30930.88163
780.6153 31123.88220
780.8026 31054.74277
780.9900 31269.90237
781.1773 30670.97391
781.3646 31180.09894
781.5518 30965.59470
781.7391 30801.92103
781.9263 30951.52515
782.1136 30703.47517
782.3008 30487.53735
782.4880 30601.81401
782.6752 30396.09555
782.8623 30362.57030
783.0495 30642.30235
783.2366 29992.93242
783.4237 30201.39516
783.6108 30527.32938
783.7979 30343.60611
783.9850 30332.40372
784.1721 30578.09853
784.3591 30085.58252
784.5462 30021.15343
784.7332 30107.63915
784.9202 30320.23878
785.1072 29761.14331
785.2941 29744.90292
785.4811 29555.99828
785.6681 29715.39169
785.8550 29762.53593
786.0419 29546.55715
786.2288 29373.15563
786.4157 29278.72380
786.6025 29337.99201
786.7894 29503.71364
786.9762 29395.00746
787.1631 28818.21754
787.3499 29137.16820
787.5367 29284.86770
787.7234 28861.47064
787.9102 29234.32383
788.0970 29326.66674
788.2837 29423.45375
788.4704 28847.50350
788.6571 28534.45099
788.8438 28510.57168
789.0305 28426.29776
789.2171 28391.97381
789.4038 28307.72037
789.5904 28509.30194
789.7770 28556.56905
789.9636 28567.50521
790.1502 28633.24500
790.3368 28562.34433
790.5233 28633.90035
790.7099 28335.59323
790.8964 27808.01600
791.0829 27733.51089
791.2694 27646.84086
791.4559 27736.86956
791.6423 27634.88072
791.8288 27783.70661
792.0152 28131.94321
792.2016 28130.16148
792.3880 28440.16251
792.5744 27791.63225
792.7608 27326.62046
792.9471 27435.03993
793.1335 28033.37448
793.3198 27669.61427
793.5061 27725.48286
793.6924 27231.86095
793.8787 27153.60806
794.0650 27076.05149
794.2512 27452.11999
794.4375 27510.44614
794.6237 27678.85061
794.8099 27637.87075
794.9961 27099.00922
795.1823 27105.68559
795.3684 27253.58990
795.5546 26834.92365
795.7407 26754.78663
795.9268 26598.87477
796.1129 26952.16986
796.2990 27036.05466
796.4851 27420.80655
796.6712 27149.79884
796.8572 27044.92236
797.0432 26708.25678
797.2292 26955.20085
797.4152 26901.93318
797.6012 26369.54323
797.7872 26154.69083
797.9731 26242.03669
798.1591 25990.32085
798.3450 25924.27386
798.5309 26251.10919
798.7168 26123.84842
798.9027 26017.51788
799.0885 26333.08938
799.2744 26131.69214
799.4602 26338.49602
799.6460 26294.91525
799.8318 26812.94894
800.0176 26326.10581
800.2034 26432.12915
800.3892 25877.17058
800.5749 25768.44392
800.7606 25744.62604
800.9463 26006.92988
801.1320 25861.07355
801.3177 25856.13794
801.5034 25802.62452
801.6890 26294.89477
801.8747 25848.19182
802.0603 25605.03649
802.2459 25468.29362
802.4315 25651.54586
802.6171 25176.86767
802.8026 25573.82545
802.9882 25529.67124
803.1737 25212.56376
803.3592 25416.43905
803.5447 25292.72126
803.7302 25618.02061
803.9157 25497.55909
804.1012 25604.05347
804.2866 25049.81168
804.4720 25158.06731
804.6574 25101.70721
804.8428 24917.82010
805.0282 24835.57367
805.2136 24609.90800
805.3989 24885.52363
805.5843 24723.40643
805.7696 24665.05980
805.9549 24575.70692
806.1402 24384.32424
806.3255 24254.62638
806.5107 24375.62037
806.6960 24663.33950
806.8812 24187.96500
807.0664 24303.44995
807.2516 24066.58189
807.4368 23924.02278
807.6220 23764.07642
807.8072 23852.15956
807.9923 23991.70815
808.1774 23873.84755
808.3625 24168.79601
808.5476 24238.26311
808.7327 24335.25491
808.9178 23928.26208
809.1028 23924.08422
809.2879 23777.94117
809.4729 23739.43936
809.6579 23521.35117
809.8429 23712.73385
810.0279 23661.43223
810.2128 23395.21677
810.3978 23484.42629
810.5827 23666.32687
810.7676 23824.65534
810.9525 23916.42482
811.1374 23604.94925
811.3223 23670.58665
811.5072 23346.43416
811.6920 23337.23878
811.8768 23427.98427
812.0616 23350.07954
812.2464 23382.90848
812.4312 23153.51550
812.6160 23305.06519
812.8007 23516.37460
812.9855 23546.31591
813.1702 23310.12367
813.3549 23318.21315
813.5396 22918.14245
813.7243 22959.69574
813.9089 22941.44834
814.0936 23041.94216
814.2782 23006.55326
814.4628 22871.18253
814.6474 22901.26719
814.8320 22889.86000
815.0166 22641.93291
815.2012 22747.01418
815.3857 22531.50643
815.5702 22486.30776
815.7547 22517.55976
815.9392 22623.56263
816.1237 22336.62172
816.3082 22186.52610
816.4926 22416.28771
816.6771 22495.25738
816.8615 22160.80361
817.0459 22349.15529
817.2303 22257.05814
817.4147 22350.44551
817.5990 22361.62742
817.7834 22055.31274
817.9677 22146.61118
818.1520 22382.86486
818.3363 22273.11421
818.5206 22021.33694
818.7049 21909.59976
818.8891 21910.00935
819.0734 22026.47734
819.2576 22147.81949
819.4418 21793.31610
819.6260 21711.23351
819.8102 21815.41368
819.9944 21793.64377
820.1785 21551.71722
820.3627 21771.52571
820.5468 21727.28958
820.7309 21491.77318
820.9150 21229.75605
821.0991 21054.38849
821.2831 21372.25372
821.4672 21201.51457
821.6512 21104.76852
821.8352 21173.08876
822.0192 21475.32799
822.2032 21199.24132
822.3872 21287.18110
822.5711 21025.10254
822.7551 20932.61627
822.9390 21007.75624
823.1229 21052.32004
823.3068 21091.33385
823.4907 20854.34290
823.6745 20848.95675
823.8584 20765.09242
824.0422 20821.53444
824.2261 20902.16297
824.4099 20895.34324
824.5937 20928.31553
824.7774 20975.29594
824.9612 20912.52570
825.1449 20597.79386
825.3287 20616.18462
825.5124 20549.15460
825.6961 20781.74241
825.8798 20663.16502
826.0634 20747.76661
826.2471 20582.63889
826.4307 20935.99542
826.6144 20746.10775
826.7980 20872.44695
826.9816 20646.98607
827.1652 20765.39962
827.3487 20718.89025
827.5323 20374.11471
827.7158 20242.55320
827.8993 20571.21122
828.0828 20310.48432
828.2663 20053.85336
828.4498 20227.56207
828.6333 20420.11209
828.8167 20126.41289
829.0001 20203.08884
829.1836 20283.16442
829.3670 20262.29562
829.5504 20511.96349
829.7337 20400.59495
829.9171 20319.92546
830.1004 20373.52080
830.2837 20282.05852
830.4671 20045.39525
830.6504 19857.20740
830.8336 19965.40159
831.0169 19827.28657
831.2002 20230.83882
831.3834 20097.47509
831.5666 19786.06096
831.7498 19830.09229
831.9330 20158.23832
832.1162 20057.29395
832.2993 19892.41198
832.4825 19987.80637
832.6656 19826.75410
832.8487 19437.88580
833.0318 19621.62955
833.2149 19488.38871
833.3980 19449.08819
833.5811 19606.14691
833.7641 19525.70270
833.9471 19389.63565
834.1301 19125.32481
834.3131 18943.44470
834.4961 19197.20851
834.6791 19313.14402
834.8620 19677.41622
835.0450 19531.70325
835.2279 19644.99688
835.4108 19571.29048
835.5937 19605.69636
835.7766 19327.58220
835.9594 19288.26120
836.1423 19401.47291
836.3251 19708.81158
836.5079 19665.57896
836.6907 19107.46652
836.8735 19028.14869
837.0563 19022.41438
837.2390 19097.39051
837.4218 18976.74467
837.6045 19310.54310
837.7872 19354.04196
837.9699 19190.38877
838.1526 18955.93731
838.3352 18901.82998
838.5179 18823.53613
838.7005 18929.82571
838.8831 19118.30027
839.0658 19165.91555
839.2483 19120.79880
839.4309 19177.05650
839.6135 19149.10172
839.7960 18651.91635
839.9786 18742.88712
840.1611 18628.22135
840.3436 18795.51992
840.5261 18571.84077
840.7085 18531.41387
840.8910 18428.81063
841.0734 18420.94643
841.2559 18391.74240
841.4383 18590.25201
841.6207 18779.62768
841.8030 18613.76269
841.9854 18559.47104
842.1678 18369.44002
842.3501 18494.79619
842.5324 18352.33948
842.7147 18520.98971
842.8970 18629.32725
843.0793 18526.00723
843.2615 18485.15025
843.4438 18526.64210
843.6260 18497.17183
843.8082 18460.14456
843.9904 18480.11225
844.1726 18234.90895
844.3548 18192.04497
844.5369 18082.66296
844.7191 18113.11625
844.9012 18050.36649
845.0833 18102.63065
845.2654 18392.60255
845.4475 18457.23644
845.6296 18126.48949
845.8116 18022.57555
845.9936 17980.51027
846.1757 18091.87882
846.3577 18121.92252
846.5397 18135.56199
846.7216 17978.29847
846.9036 17924.53929
847.0855 17680.42141
847.2675 17886.34467
847.4494 17780.19845
847.6313 18021.22389
847.8132 18069.31020
847.9950 17913.23450
848.1769 17891.25980
848.3587 18137.32324
848.5406 17818.47499
848.7224 17789.27095
848.9042 17686.03285
849.0860 17835.20689
849.2677 17617.58973
849.4495 17472.32731
849.6312 17413.87828
849.8129 17473.43321
849.9946 17655.45668
850.1763 17566.43147
850.3580 17410.27386
850.5397 17337.53001
850.7213 17027.54946
850.9029 17068.71363
851.0845 17196.79359
851.2661 17144.20176
851.4477 17149.62887
851.6293 17211.64137
851.8109 17225.69043
851.9924 17396.81870
852.1739 17460.18285
852.3554 17355.57261
852.5369 17182.62165
852.7184 16987.83934
852.8999 16904.93757
853.0813 16884.47836
853.2628 16955.91151
853.4442 17047.68099
853.6256 17000.53675
853.8070 17140.16726
853.9883 17128.45288
854.1697 17018.70223
854.3510 16812.55370
854.5324 16810.60813
854.7137 16861.21343
854.8950 16800.45020
855.0763 16822.93690
855.2575 16830.43246
855.4388 16852.81676
855.6200 16842.84315
855.8013 16852.83724
855.9825 16774.42052
856.1637 16805.07861
856.3449 16701.06228
856.5260 16713.49345
856.7072 16718.16282
856.8883 16938.13514
857.0694 16799.73341
857.2505 16741.67350
857.4316 16772.24967
857.6127 16694.81597
857.7938 16812.98377
857.9748 16727.11244
858.1558 16552.07255
858.3368 16463.41598
858.5178 16437.87781
858.6988 16617.03412
858.8798 16541.79175
859.0607 16680.21396
859.2417 16535.19729
859.4226 16436.52615
859.6035 16514.49233
859.7844 16557.23343
859.9653 16497.06411
860.1462 16368.92271
860.3270 16299.70136
860.5078 16225.74921
860.6887 16232.36415
860.8695 16127.22143
861.0503 16254.70749
861.2310 16019.33444
861.4118 15948.70000
861.5925 15865.32719
861.7733 15820.94771
861.9540 15660.91943
862.1347 15495.32068
862.3154 15409.18311
862.4960 15523.50073
862.6767 15585.69754
862.8573 15555.01897
863.0380 15518.93376
863.2186 15591.92336
863.3992 15524.07416
863.5797 15484.22069
863.7603 15520.40829
863.9409 15410.94436
864.1214 15498.20831
864.3019 15592.21008
864.4824 15600.85251
864.6629 15431.97700
864.8434 15237.82957
865.0238 15455.40577
865.2043 15515.34981
865.3847 15138.60548
865.5651 15023.46868
865.7455 15249.64635
865.9259 15264.43268
866.1063 15148.92724
866.2866 15075.52804
866.4670 15180.07685
866.6473 15052.30408
866.8276 15003.56242
867.0079 14951.50305
867.1882 14879.94703
867.3684 14778.94121
867.5487 14758.54344
867.7289 14763.84768
867.9091 14777.54859
868.0893 14610.41386
868.2695 14378.11276
868.4497 14310.61171
868.6299 14437.58578
868.8100 14464.02505
868.9901 14361.44230
869.1703 14486.49127
869.3504 14485.52873
869.5304 14472.89276
869.7105 14519.48405
869.8906 14504.61579
870.0706 14406.92768
870.2506 14532.83680
870.4306 14500.94993
870.6106 14446.00293
870.7906 14541.54067
870.9706 14409.09853
871.1505 14242.10716
871.3305 14280.73185
871.5104 14107.80137
871.6903 14047.18149
871.8702 14172.53766
872.0500 14133.36002
872.2299 14165.79984
872.4097 14001.65515
872.5896 14112.47074
872.7694 14149.98952
872.9492 14003.27304
873.1290 13677.89177
873.3087 13723.19284
873.4885 14011.21916
873.6682 13947.87549
873.8480 13845.98904
874.0277 13879.14566
874.2074 13642.27759
874.3870 13783.32120
874.5667 13860.30435
874.7463 13966.32769
874.9260 13766.40498
875.1056 13747.78894
875.2852 13678.13753
875.4648 13607.25733
875.6444 13578.21713
875.8239 13720.30520
876.0035 13557.61456
876.1830 13545.55203
876.3625 13440.88035
876.5420 13430.39475
876.7215 13423.39069
876.9010 13195.82040
877.0804 13298.13692
877.2599 13250.54213
877.4393 13450.19860
877.6187 13464.22719
877.7981 13450.50580
877.9775 13291.68582
878.1568 13507.02974
878.3362 13343.82711
878.5155 13285.07088
878.6948 13029.62774
878.8741 13018.44583
879.0534 13025.96188
879.2327 12945.68150
879.4119 12930.52653
879.5912 12782.94990
879.7704 12963.56027
879.9496 13079.25002
880.1288 12898.27103
880.3080 12664.90499
880.4872 12838.73657
880.6663 12810.96612
880.8455 12861.53047
881.0246 12916.60035
881.2037 12900.89243
881.3828 12787.18920
881.5619 12679.11789
881.7409 12672.85110
881.9200 12509.48464
882.0990 12642.47973
882.2780 12623.61794
882.4570 12554.70379
882.6360 12573.09455
882.8150 12379.66390
882.9940 12277.49074
883.1729 12283.94184
883.3518 12525.02872
883.5308 12481.28411
883.7096 12511.67596
883.8885 12361.86705
884.0674 12309.68481
884.2463 12278.53520
884.4251 12277.55218
884.6039 12109.84402
884.7827 12192.62291
884.9615 12119.89954
885.1403 12144.20893
885.3191 12169.54230
885.4978 11913.56669
885.6765 12031.77545
885.8553 12131.02001
886.0340 12061.16380
886.2127 12038.65662
886.3913 11930.60579
886.5700 11887.06597
886.7486 11803.95940
886.9273 11800.62121
887.1059 11662.50620
887.2845 11679.91394
887.4630 11750.77365
887.6416 11800.58025
887.8202 11835.60052
887.9987 11786.69503
888.1772 11808.95645
888.3557 11802.89446
888.5342 11671.37391
888.7127 11791.65111
888.8912 11758.10538
889.0696 11747.18971
889.2481 11527.19691
889.4265 11476.89879
889.6049 11424.77799
889.7833 11455.96855
889.9616 11355.45425
890.1400 11384.55588
890.3183 11063.37294
890.4967 11195.18021
890.6750 11385.92802
890.8533 11316.93195
891.0316 11254.40747
891.2098 11161.12249
891.3881 11091.14340
891.5663 11066.48586
891.7445 11073.46943
891.9227 10973.67191
892.1009 10979.46766
892.2791 11121.92437
892.4573 11145.98800
892.6354 11009.44993
892.8136 11025.79272
892.9917 11004.49384
893.1698 10874.40687
893.3479 11026.22279
893.5259 11193.29608
893.7040 11050.08163
893.8820 10934.94482
894.0601 10933.61364
894.2381 10983.66600
894.4161 11052.66207
894.5941 11040.35377
894.7720 11016.18774
894.9500 10997.10068
895.1279 11074.41150
895.3058 10944.24260
895.4838 10960.31916
895.6616 10867.25946
895.8395 10817.37094
896.0174 10749.39885
896.1952 10772.29515
896.3731 10817.20710
896.5509 10757.71361
896.7287 10746.67506
896.9065 10728.91917
897.0842 10749.91085
897.2620 10664.96110
897.4397 10584.37353
897.6175 10643.02736
897.7952 10673.50113
897.9729 10820.89344
898.1506 10761.91194
898.3282 10637.19065
898.5059 10607.04455
898.6835 10594.65434
898.8611 10709.50442
899.0388 10559.71599
899.2163 10377.73349
899.3939 10353.95657
899.5715 10464.87456
899.7490 10380.90784
899.9266 10389.98034
900.1041 10490.84280
900.2816 10497.31438
900.4591 10396.71816
900.6365 10428.66647
900.8140 10300.42267
900.9914 10337.98241
901.1689 10352.76875
901.3463 10289.71179
901.5237 10304.55956
901.7011 10249.42824
901.8784 10230.77125
902.0558 10111.12891
902.2331 10210.43492
902.4104 10312.56712
902.5878 10281.62231
902.7650 10225.97900
902.9423 10160.95599
903.1196 10228.84616
903.2968 10354.07945
903.4741 10334.48039
903.6513 10203.57422
903.8285 10106.58242
904.0057 10129.62207
904.1828 9990.25780
904.3600 9895.76452
904.5371 9921.03645
904.7143 9931.37870
904.8914 9990.48308
905.0685 10094.82708
905.2456 10076.57968
905.4226 10101.23722
905.5997 10125.85381
905.7767 10189.23844
905.9537 9986.30522
906.1307 9932.99659
906.3077 9847.06382
906.4847 9800.43158
906.6617 9812.82179
906.8386 9881.34682
907.0156 9793.22273
907.1925 9701.76044
907.3694 9709.19457
907.5463 9779.60373
907.7231 9840.71512
907.9000 9808.97160
908.0768 9709.29697
908.2537 9524.61114
908.4305 9605.28063
908.6073 9791.64579
908.7841 9758.03862
908.9608 9611.54742
909.1376 9576.40427
909.3143 9542.10080
909.4910 9484.38904
909.6677 9463.39736
909.8444 9533.43789
910.0211 9549.59636
910.1978 9493.50250
910.3744 9530.85745
910.5510 9577.69449
910.7277 9597.84651
910.9043 9468.47632
911.0808 9495.22279
911.2574 9465.95732
911.4340 9404.12914
911.6105 9269.41376
911.7870 9319.69139
911.9636 9368.08489
912.1401 9347.48233
912.3165 9407.09870
912.4930 9326.92072
912.6695 9234.12726
912.8459 9219.11565
913.0223 9243.44551
913.1987 9247.58241
913.3751 9216.92432
913.5515 9137.74985
913.7279 9191.34519
913.9042 9154.37935
914.0805 9069.30673
914.2568 9052.39051
914.4331 9022.92024
914.6094 9030.39532
914.7857 8981.42839
914.9620 8983.23060
915.1382 8928.07881
915.3144 8844.66504
915.4906 8983.27156
915.6668 9027.36433
915.8430 8884.60043
916.0192 8703.19136
916.1953 8864.22314
916.3715 8934.48895
916.5476 8857.50580
916.7237 8894.47164
916.8998 8861.37646
917.0759 8813.37208
917.2519 8753.91954
917.4280 8820.21229
917.6040 8780.05163
917.7800 8741.83653
917.9560 8712.57105
918.1320 8686.43897
918.3080 8686.58233
918.4839 8592.17097
918.6599 8526.94317
918.8358 8569.11084
919.0117 8610.39789
919.1876 8529.68745
919.3635 8525.89870
919.5394 8595.24293
919.7152 8529.31881
919.8911 8506.56588
920.0669 8462.35023
920.2427 8380.51340
920.4185 8307.74907
920.5942 8306.52029
920.7700 8274.24430
920.9458 8351.69848
921.1215 8366.68961
921.2972 8345.30882
921.4729 8357.14608
921.6486 8215.32424
921.8243 8051.15907
921.9999 8086.65037
922.1756 8093.26530
922.3512 8126.60624
922.5268 8074.64927
922.7024 8184.13368
922.8780 8242.82846
923.0535 8211.92461
923.2291 8162.34329
923.4046 8205.47351
923.5801 8330.13337
923.7557 8222.75837
923.9311 8163.18296
924.1066 8100.14648
924.2821 8203.09787
924.4575 8199.65728
924.6330 8152.43112
924.8084 8037.70391
924.9838 7949.47742
925.1592 7940.60971
925.3345 7925.65954
925.5099 7920.06859
925.6852 7953.40952
925.8606 7887.15773
926.0359 7804.84987
926.2112 7808.67957
926.3864 7783.53051
926.5617 7670.93319
926.7370 7705.21619
926.9122 7672.98116
927.0874 7617.31737
927.2626 7587.10983
927.4378 7615.90427
927.6130 7605.91018
927.7882 7573.63419
927.9633 7536.95507
928.1384 7439.73800
928.3135 7316.04068
928.4886 7304.28534
928.6637 7350.54896
928.8388 7363.59452
929.0139 7367.89525
929.1889 7327.01780
929.3639 7297.30177
929.5389 7323.31097
929.7139 7290.09292
929.8889 7352.94508
930.0639 7360.89120
930.2388 7265.16914
930.4138 7220.44150
930.5887 7240.67543
930.7636 7292.83720
930.9385 7245.97967
931.1134 7117.32628
931.2882 7105.30470
931.4631 7010.09463
931.6379 7006.42877
931.8127 7001.30885
931.9875 7004.68800
932.1623 6989.71734
932.3371 6976.81514
932.5118 6992.70738
932.6866 6964.44541
932.8613 6898.13218
933.0360 6893.48329
933.2107 6836.03777
933.3854 6776.35996
933.5600 6802.41012
933.7347 6690.50911
933.9093 6712.64765
934.0839 6702.28493
934.2586 6746.15242
934.4331 6737.30520
934.6077 6688.56354
934.7823 6617.70382
934.9568 6623.47909
935.1314 6571.37877
935.3059 6580.20551
935.4804 6508.62900
935.6549 6536.37898
935.8293 6560.56549
936.0038 6558.57896
936.1782 6565.86973
936.3526 6571.84980
936.5271 6477.74564
936.7015 6422.96247
936.8758 6456.42628
937.0502 6470.76206
937.2246 6448.09105
937.3989 6506.68343
937.5732 6423.37207
937.7475 6368.11787
937.9218 6329.20646
938.0961 6318.37271
938.2703 6313.64190
938.4446 6296.66424
938.6188 6298.89653
938.7930 6250.70782
938.9672 6182.92005
939.1414 6229.90046
939.3156 6141.44869
939.4897 6090.20851
939.6639 6063.31868
939.8380 6090.43379
940.0121 6076.52808
940.1862 6114.12878
940.3603 6112.14225
940.5344 6147.12156
940.7084 6181.97799
940.8824 6141.42821
941.0565 6120.27269
941.2305 6075.23786
941.4045 6008.35120
941.5784 6002.67832
941.7524 6019.92222
941.9263 6089.86035
942.1003 6041.26206
942.2742 5997.90656
942.4481 5918.95736
942.6220 5910.78597
942.7958 5898.31384
942.9697 5916.06973
943.1435 5939.86712
943.3174 5945.43760
943.4912 5910.54021
943.6650 5907.89833
943.8387 5849.57218
944.0125 5782.41929
944.1863 5799.80654
944.3600 5811.23421
944.5337 5761.30473
944.7074 5821.84268
944.8811 5772.65047
945.0548 5745.59681
945.2284 5656.85832
945.4021 5657.16552
945.5757 5718.80938
945.7493 5629.31314
945.9229 5527.69293
946.0965 5520.05401
946.2701 5482.06419
946.4436 5528.47116
946.6172 5526.48463
946.7907 5543.01174
946.9642 5510.69479
947.1377 5490.78854
947.3112 5488.08522
947.4847 5505.71823
947.6581 5534.98370
947.8315 5545.16211
948.0050 5454.45757
948.1784 5408.70595
948.3518 5433.36349
948.5251 5388.06242
948.6985 5458.02104
948.8718 5450.46403
949.0452 5358.44880
949.2185 5336.86320
949.3918 5327.23775
949.5651 5353.92278
949.7383 5272.49555
949.9116 5296.72302
950.0848 5310.87448
950.2581 5325.98849
950.4313 5351.54714
950.6045 5373.15321
950.7776 5359.73902
950.9508 5276.16141
951.1239 5262.78817
951.2971 5183.69562
951.4702 5203.00797
951.6433 5205.67033
951.8164 5159.48863
951.9895 5203.47900
952.1625 5151.54251
952.3356 5195.77864
952.5086 5120.12667
952.6816 5172.28844
952.8546 5113.28646
953.0276 5111.34089
953.2006 5110.76745
953.3735 5076.93501
953.5465 5094.05603
953.7194 5076.27966
953.8923 5034.82877
954.0652 5056.20957
954.2381 4977.66997
954.4109 4922.92776
954.5838 4942.93642
954.7566 4925.79492
954.9294 4871.25751
955.1022 4900.52298
955.2750 4912.21688
955.4478 4885.59329
955.6206 4897.45103
955.7933 4923.54215
955.9660 4893.94900
956.1388 4905.95010
956.3115 4869.66009
956.4841 4812.64464
956.6568 4791.83728
956.8295 4774.18379
957.0021 4770.49745
957.1747 4769.00243
957.3473 4727.14195
957.5199 4709.50894
957.6925 4731.17645
957.8651 4735.41574
958.0376 4751.45134
958.2102 4707.91152
958.3827 4759.66369
958.5552 4815.28652
958.7277 4765.02937
958.9001 4693.26855
959.0726 4637.58428
959.2450 4608.66696
959.4175 4632.28004
959.5899 4564.02124
959.7623 4563.14061
959.9347 4519.25264
960.1070 4476.69585
960.2794 4476.36817
960.4517 4460.41450
960.6241 4503.05321
960.7964 4507.55874
960.9687 4526.50245
961.1409 4497.95377
961.3132 4479.39917
961.4855 4414.25328
961.6577 4402.47746
961.8299 4435.26544
962.0021 4429.14202
962.1743 4387.79353
962.3465 4354.30924
962.5186 4350.90961
962.6908 4358.13894
962.8629 4323.69210
963.0350 4317.17956
963.2071 4308.06610
963.3792 4279.43550
963.5513 4252.42279
963.7233 4305.79286
963.8954 4299.60799
964.0674 4276.85506
964.2394 4264.05525
964.4114 4234.44163
964.5834 4231.14440
964.7553 4244.14900
964.9273 4220.06489
965.0992 4163.49999
965.2711 4213.49091
965.4430 4227.08942
965.6149 4212.71268
965.7868 4199.01177
965.9587 4150.10627
966.1305 4173.22784
966.3023 4158.23671
966.4741 4182.34130
966.6459 4135.19706
966.8177 4151.72417
966.9895 4125.34633
967.1613 4098.78418
967.3330 4102.34764
967.5047 4078.03825
967.6764 4078.14065
967.8481 4042.81319
968.0198 4015.16561
968.1915 4005.41728
968.3631 4014.79698
968.5347 4007.09662
968.7064 3976.21325
968.8780 3968.96344
969.0496 3968.71768
969.2211 3949.34390
969.3927 3972.83410
969.5642 3929.25332
969.7358 3908.95795
969.9073 3899.88545
970.0788 3948.29943
970.2503 3956.67562
970.4217 3942.70848
970.5932 3910.14577
970.7646 3901.83102
970.9360 3914.97898
971.1074 3924.99355
971.2788 3944.65405
971.4502 3913.50444
971.6216 3866.07349
971.7929 3863.65688
971.9643 3839.57277
972.1356 3870.12847
972.3069 3871.50060
972.4782 3836.31650
972.6494 3798.85915
972.8207 3799.30971
972.9919 3790.48296
973.1632 3741.55699
973.3344 3726.60682
973.5056 3696.31736
973.6768 3695.90776
973.8479 3747.10698
974.0191 3750.46565
974.1902 3731.52194
974.3614 3706.06569
974.5325 3715.09723
974.7036 3707.08967
974.8746 3694.04411
975.0457 3663.73417
975.2167 3630.92572
975.3878 3613.04695
975.5588 3625.02757
975.7298 3636.63955
975.9008 3606.00194
976.0718 3616.87665
976.2427 3593.59125
976.4137 3569.95769
976.5846 3557.95659
976.7555 3556.80973
976.9264 3536.98539
977.0973 3538.15273
977.2682 3567.25437
977.4390 3550.68630
977.6098 3557.36268
977.7807 3571.98518
977.9515 3576.16303
978.1223 3567.47964
978.2930 3525.33245
978.4638 3523.16160
978.6346 3478.02437
978.8053 3464.42586
978.9760 3447.75539
979.1467 3425.14582
979.3174 3437.98658
979.4881 3437.33123
979.6587 3432.92810
979.8294 3423.60984
980.0000 3406.61170
980.1706 3389.16300
980.3412 3377.22335
980.5118 3361.24919
980.6824 3345.25455
980.8529 3383.08054
981.0235 3389.69548
981.1940 3402.06521
981.3645 3352.03333
981.5350 3354.94145
981.7055 3331.14405
981.8759 3328.56361
982.0464 3340.72854
982.2168 3303.18928
982.3872 3325.40974
982.5576 3299.66677
982.7280 3306.99850
982.8984 3312.93761
983.0687 3306.13835
983.2391 3284.77804
983.4094 3268.55813
983.5797 3258.35924
983.7500 3260.53009
983.9203 3236.11830
984.0906 3244.14634
984.2608 3217.17459
984.4311 3232.22716
984.6013 3200.54508
984.7715 3226.04229
984.9417 3245.98951
985.1119 3216.56020
985.2820 3171.19769
985.4522 3166.40544
985.6223 3160.26154
985.7924 3180.14731
985.9625 3186.63938
986.1326 3192.84472
986.3027 3173.22518
986.4727 3175.02739
986.6428 3158.58220
986.8128 3144.22594
986.9828 3117.37707
987.1528 3120.53094
987.3228 3124.97504
987.4928 3142.56709
987.6627 3144.88129
987.8327 3115.12431
988.0026 3098.76104
988.1725 3083.23743
988.3424 3064.08892
988.5123 3064.64188
988.6821 3060.38210
988.8520 3074.88172
989.0218 3066.21881
989.1916 3081.08707
989.3614 3027.79892
989.5312 3019.72992
989.7010 2995.87109
989.8707 2987.69969
990.0405 2991.22220
990.2102 2999.10688
990.3799 2986.83954
990.5496 2969.96428
990.7193 2956.52961
990.8890 2949.34124
991.0586 2938.93755
991.2283 2966.21650
991.3979 2950.32426
991.5675 2965.95026
991.7371 2947.62094
991.9067 2920.81303
992.0762 2896.40124
992.2458 2914.19809
992.4153 2925.83055
992.5848 2936.19328
992.7543 2943.58644
992.9238 2905.71950
993.0933 2903.42578
993.2627 2898.63353
993.4322 2883.02801
993.6016 2887.36970
993.7710 2850.81346
993.9404 2851.87840
994.1098 2848.80645
994.2792 2855.13467
994.4485 2829.00259
994.6179 2830.92768
994.7872 2833.26237
994.9565 2823.94411
995.1258 2832.56606
995.2951 2835.33082
995.4643 2834.59355
995.6336 2824.21035
995.8028 2810.32512
995.9720 2787.71554
996.1412 2798.61074
996.3104 2798.71313
996.4796 2789.41536
996.6487 2792.69211
996.8179 2802.03084
996.9870 2800.16719
997.1561 2769.93917
997.3252 2758.69582
997.4943 2744.01189
997.6634 2734.83699
997.8324 2749.25469
998.0014 2736.02481
998.1705 2730.10618
998.3395 2704.79329
998.5085 2687.71323
998.6774 2693.93905
998.8464 2675.77357
999.0153 2688.47098
999.1843 2687.07836
999.3532 2694.04145
999.5221 2681.26213
999.6910 2694.53296
999.8599 2711.28535
1000.0287 2733.97684
1000.1976 2714.80785
1000.3664 2706.86174
1000.5352 2703.31875
1000.7040 2692.52595
1000.8728 2683.74017
1001.0415 2661.97026
1001.2103 2627.85110
1001.3790 2637.12840
1001.5478 2617.52934
1001.7165 2614.04779
1001.8851 2609.64466
1002.0538 2607.20758
1002.2225 2630.88210
1002.3911 2633.74925
1002.5598 2605.79448
1002.7284 2600.75648
1002.8970 2591.95021
1003.0656 2596.45574
1003.2341 2583.86073
1003.4027 2577.88066
1003.5712 2528.68845
1003.7398 2540.05468
1003.9083 2535.79491
1004.0768 2531.06410
1004.2453 2493.54531
1004.4137 2524.83827
1004.5822 2513.41061
1004.7506 2540.99675
1004.9190 2495.65472
1005.0874 2496.20767
1005.2558 2492.11173
1005.4242 2495.79808
1005.5926 2484.63665
1005.7609 2484.63665
1005.9292 2463.41969
1006.0976 2504.95250
1006.2659 2477.59163
1006.4342 2500.03737
1006.6024 2486.70510
1006.7707 2483.51026
1006.9389 2481.31894
1007.1071 2491.06727
1007.2754 2486.70510
1007.4436 2468.37577
1007.6117 2450.31269
1007.7799 2448.79719
1007.9481 2441.15827
1008.1162 2451.88963
1008.2843 2448.22376
1008.4524 2445.45900
1008.6205 2429.01382
1008.7886 2429.79204
1008.9566 2414.22748
1009.1247 2415.96825
1009.2927 2396.06200
1009.4607 2400.58801
1009.6287 2386.70278
1009.7967 2384.79817
1009.9647 2387.68581
1010.1327 2377.30260
1010.3006 2367.59523
1010.4685 2361.14413
1010.6364 2359.89487
1010.8043 2366.34597
1010.9722 2346.52163
1011.1401 2339.47662
1011.3079 2330.13788
1011.4758 2349.96222
1011.6436 2336.15891
1011.8114 2356.76148
1011.9792 2348.73344
1012.1470 2367.84099
1012.3147 2356.33140
1012.4825 2355.08214
1012.6502 2347.38178
1012.8179 2353.36185
1012.9856 2331.40762
1013.1533 2341.74987
1013.3210 2315.26963
1013.4886 2309.55580
1013.6563 2289.15803
1013.8239 2295.83441
1013.9915 2302.28551
1014.1591 2279.59402
1014.3267 2283.30084
1014.4942 2284.03811
1014.6618 2282.07206
1014.8293 2286.18847
1014.9969 2264.91008
1015.1644 2295.77297
1015.3319 2284.01763
1015.4993 2271.44310
1015.6668 2267.42908
1015.8342 2263.18979
1016.0017 2262.28868
1016.1691 2262.02244
1016.3365 2245.51582
1016.5039 2242.99681
1016.6712 2248.56729
1016.8386 2241.50180
1017.0059 2226.71546
1017.1733 2237.22154
1017.3406 2219.40421
1017.5079 2230.17653
1017.6752 2205.62138
1017.8424 2200.48098
1018.0097 2199.84611
1018.1769 2209.55348
1018.3441 2192.63726
1018.5113 2202.89759
1018.6785 2188.07029
1018.8457 2208.16087
1019.0129 2203.94205
1019.1800 2204.22877
1019.3471 2212.23632
1019.5142 2215.34924
1019.6813 2205.31419
1019.8484 2203.96253
1020.0155 2191.89999
1020.1826 2183.25757
1020.3496 2166.54614
1020.5166 2151.69837
1020.6836 2167.44725
1020.8506 2159.17345
1021.0176 2143.01498
1021.1846 2147.47955
1021.3515 2137.95650
1021.5185 2146.88564
1021.6854 2140.55742
1021.8523 2141.90908
1022.0192 2143.54745
1022.1861 2154.48360
1022.3529 2130.87052
1022.5198 2145.77974
1022.6866 2119.79101
1022.8534 2128.10577
1023.0202 2111.88585
1023.1870 2115.32644
1023.3538 2115.63364
1023.5205 2126.79507
1023.6873 2104.12405
1023.8540 2108.28143
1024.0207 2100.35579
1024.1874 2115.53124
1024.3541 2099.43420
1024.5207 2104.63605
1024.6874 2088.19086
1024.8540 2105.43475
1025.0206 2075.67777
1025.1872 2085.38514
1025.3538 2078.44252
1025.5204 2086.36816
1025.6870 2078.13533
1025.8535 2074.16227
1026.0201 2078.05341
1026.1866 2066.62575
1026.3531 2055.64863
1026.5196 2064.31154
1026.6860 2065.62224
1026.8525 2068.48940
1027.0189 2035.49662
1027.1853 2045.34735
1027.3518 2053.12963
1027.5181 2063.69715
1027.6845 2041.43573
1027.8509 2036.43869
1028.0172 2018.06841
1028.1836 2020.79220
1028.3499 2003.91694
1028.5162 2016.67579
1028.6825 2003.73262
1028.8488 2015.24221
1029.0150 1998.61270
1029.1813 2000.02580
1029.3475 1980.26290
1029.5137 1990.99426
1029.6799 1993.32894
1029.8461 1980.59058
1030.0123 1988.06566
1030.1784 1987.36935
1030.3446 1980.44722
1030.5107 1984.66604
1030.6768 1980.07859
1030.8429 1978.99316
1031.0090 1967.91365
1031.1750 1966.82823
1031.3411 1956.44503
1031.5071 1975.79833
1031.6732 1961.05296
1031.8392 1964.67786
1032.0051 1949.27714
1032.1711 1956.09687
1032.3371 1939.69264
1032.5030 1951.01791
1032.6690 1950.83359
1032.8349 1949.52289
1033.0008 1928.03970
1033.1667 1943.19467
1033.3325 1921.15852
1033.4984 1936.41589
1033.6642 1932.95483
1033.8300 1954.78617
1033.9959 1936.70261
1034.1616 1939.13969
1034.3274 1936.39541
1034.4932 1942.98987
1034.6589 1926.74948
1034.8247 1937.82899
1034.9904 1919.49967
1035.1561 1916.26388
1035.3218 1920.01166
1035.4875 1917.65650
1035.6531 1903.40264
1035.8188 1918.33233
1035.9844 1898.61039
1036.1500 1905.63492
1036.3156 1883.94693
1036.4812 1892.42552
1036.6468 1896.70578
1036.8123 1897.36113
1036.9779 1886.46593
1037.1434 1899.94157
1037.3089 1884.00837
1037.4744 1902.70633
1037.6399 1894.69877
1037.8053 1882.34952
1037.9708 1878.92941
1038.1362 1885.27811
1038.3016 1891.87257
1038.4670 1883.43494
1038.6324 1881.24361
1038.7978 1859.61706
1038.9632 1882.45192
1039.1285 1877.29103
1039.2938 1862.27942
1039.4592 1866.66208
1039.6245 1851.83478
1039.7897 1865.43330
1039.9550 1862.97573
1040.1203 1859.41227
1040.2855 1852.94069
1040.4507 1864.96226
1040.6159 1847.51357
1040.7811 1844.23682
1040.9463 1839.38313
1041.1115 1834.30417
1041.2766 1837.33516
1041.4418 1830.65879
1041.6069 1817.71562
1041.7720 1826.54237
1041.9371 1817.30603
1042.1021 1815.79053
1042.2672 1811.81747
1042.4323 1820.70566
1042.5973 1818.14570
1042.7623 1808.02873
1042.9273 1816.52780
1043.0923 1818.67817
1043.2572 1812.71858
1043.4222 1806.57467
1043.5871 1785.74683
1043.7521 1805.44829
1043.9170 1822.28259
1044.0819 1792.95568
1044.2467 1804.30143
1044.4116 1796.27339
1044.5765 1784.78429
1044.7413 1790.39572
1044.9061 1794.57358
1045.0709 1796.27339
1045.2357 1776.40809
1045.4005 1780.36067
1045.5652 1774.64684
1045.7300 1770.18227
1045.8947 1756.54280
1046.0594 1769.26068
1046.2241 1762.76862
1046.3888 1773.86861
1046.5535 1763.07582
1046.7181 1766.61880
1046.8828 1755.49833
1047.0474 1759.65571
1047.2120 1751.68911
1047.3766 1753.83948
1047.5412 1735.69448
1047.7057 1746.93782
1047.8703 1746.42583
1048.0348 1742.43229
1048.1993 1744.41882
1048.3639 1737.86532
1048.5283 1727.85075
1048.6928 1732.09005
1048.8573 1725.94614
1049.0217 1733.64651
1049.1861 1714.64136
1049.3506 1732.25389
1049.5150 1714.43656
1049.6793 1717.67235
1049.8437 1721.68637
1050.0081 1713.69929
1050.1724 1711.91756
1050.3367 1719.94560
1050.5010 1707.49395
1050.6653 1710.97549
1050.8296 1702.96793
1050.9939 1710.87309
1051.1581 1697.11074
1051.3224 1712.18379
1051.4866 1698.31905
1051.6508 1699.34303
1051.8150 1693.97735
1051.9791 1689.69710
1052.1433 1682.28345
1052.3074 1695.86148
1052.4716 1685.45780
1052.6357 1682.18105
1052.7998 1676.40578
1052.9639 1679.76445
1053.1279 1661.94712
1053.2920 1667.18992
1053.4560 1670.65099
1053.6201 1671.75689
1053.7841 1665.61298
1053.9481 1669.52460
1054.1120 1658.69085
1054.2760 1655.90561
1054.4399 1655.55746
1054.6039 1670.40523
1054.7678 1643.20821
1054.9317 1652.97702
1055.0956 1648.71724
1055.2595 1646.56687
1055.4233 1641.73367
1055.5872 1642.96245
1055.7510 1639.13275
1055.9148 1639.62426
1056.0786 1637.18718
1056.2424 1653.77573
1056.4062 1635.48736
1056.5699 1642.79861
1056.7336 1647.71374
1056.8974 1623.50675
1057.0611 1633.11172
1057.2248 1631.86246
1057.3885 1616.95325
1057.5521 1622.05269
1057.7158 1617.75195
1057.8794 1623.91634
1058.0430 1621.64310
1058.2066 1626.78350
1058.3702 1610.64550
1058.5338 1623.30195
1058.6973 1606.13997
1058.8609 1616.62557
1059.0244 1601.10197
1059.1879 1612.07908
1059.3514 1591.86563
1059.5149 1600.85621
1059.6784 1603.37521
1059.8418 1597.86618
1060.0053 1592.39810
1060.1687 1596.65788
1060.3321 1579.92597
1060.4955 1577.59129
1060.6589 1581.13427
1060.8222 1590.94404
1060.9856 1574.96989
1061.1489 1580.74516
1061.3122 1566.53226
1061.4755 1587.74921
1061.6388 1580.15125
1061.8021 1588.69128
1061.9654 1564.85292
1062.1286 1567.49480
1062.2918 1570.09572
1062.4550 1571.85698
1062.6182 1563.86990
1062.7814 1572.40993
1062.9446 1568.37543
1063.1077 1562.90735
1063.2709 1549.37028
1063.4340 1551.19297
1063.5971 1545.64298
1063.7602 1557.88983
1063.9233 1544.43467
1064.0863 1549.34980
1064.2494 1539.84722
1064.4124 1537.41014
1064.5754 1535.64889
1064.7384 1537.20534
1064.9014 1538.12693
1065.0644 1536.03800
1065.2274 1523.34060
1065.3903 1535.25977
1065.5532 1523.23820
1065.7162 1527.35461
1065.8790 1522.17325
1066.0419 1530.91808
1066.2048 1519.30610
1066.3677 1528.95203
1066.5305 1522.45997
1066.6933 1519.24466
1066.8561 1513.26459
1067.0189 1507.77603
1067.1817 1503.72105
1067.3445 1503.31146
1067.5072 1495.38582
1067.6699 1498.35538
1067.8327 1490.06110
1067.9954 1498.25298
1068.1580 1489.22144
1068.3207 1489.38527
1068.4834 1483.22089
1068.6460 1495.22198
1068.8086 1485.86277
1068.9713 1484.34727
1069.1339 1469.86813
1069.2964 1493.74745
1069.4590 1467.02145
1069.6216 1477.44562
1069.7841 1464.66629
1069.9466 1471.95706
1070.1091 1460.65227
1070.2716 1467.77920
1070.4341 1465.69028
1070.5966 1472.61241
1070.7590 1450.86298
1070.9214 1460.71371
1071.0839 1458.74766
1071.2463 1474.96757
1071.4086 1457.94895
1071.5710 1454.42645
1071.7334 1443.49029
1071.8957 1453.17719
1072.0580 1448.71261
1072.2204 1442.03624
1072.3827 1428.54012
1072.5449 1440.62314
1072.7072 1433.82388
1072.8695 1434.15156
1073.0317 1431.32536
1073.1939 1430.69049
1073.3561 1421.61799
1073.5183 1437.59214
1073.6805 1421.51559
1073.8427 1431.77591
1074.0048 1426.43071
1074.1669 1425.16097
1074.3291 1411.56246
1074.4912 1428.88828
1074.6532 1407.38460
1074.8153 1416.86670
1074.9774 1414.12242
1075.1394 1413.61043
1075.3014 1406.15582
1075.4635 1406.58590
1075.6255 1404.12833
1075.7874 1415.82224
1075.9494 1392.35251
1076.1114 1401.17926
1076.2733 1392.57779
1076.4352 1394.97391
1076.5971 1384.91839
1076.7590 1402.34660
1076.9209 1386.72060
1077.0828 1390.44790
1077.2446 1387.47835
1077.4064 1388.54329
1077.5683 1377.66858
1077.7301 1375.72301
1077.8918 1374.73998
1078.0536 1373.22449
1078.2154 1379.34791
1078.3771 1379.16360
1078.5388 1365.25789
1078.7006 1376.21452
1078.8623 1362.80032
1079.0239 1358.86823
1079.1856 1353.21583
1079.3473 1370.05013
1079.5089 1360.93667
1079.6705 1360.81380
1079.8321 1355.89867
1079.9937 1359.42118
1080.1553 1345.49499
1080.3169 1357.37321
1080.4784 1345.74075
1080.6399 1357.88520
1080.8014 1350.86067
1080.9629 1355.22284
1081.1244 1344.96252
1081.2859 1348.01399
1081.4474 1335.99241
1081.6088 1343.46750
1081.7702 1330.99537
1081.9316 1331.81456
1082.0930 1332.61327
1082.2544 1320.40737
1082.4158 1324.74907
1082.5771 1335.60330
1082.7385 1324.25755
1082.8998 1335.35754
1083.0611 1319.67010
1083.2224 1318.72804
1083.3837 1320.55073
1083.5449 1321.14464
1083.7062 1307.38229
1083.8674 1317.33542
1084.0286 1305.78488
1084.1898 1309.83985
1084.3510 1302.05757
1084.5122 1318.74852
1084.6734 1301.81182
1084.8345 1302.52860
1084.9956 1292.10444
1085.1567 1304.57657
1085.3178 1301.01311
1085.4789 1303.12252
1085.6400 1292.88267
1085.8010 1297.36772
1085.9621 1287.39412
1086.1231 1294.62345
1086.2841 1274.26664
1086.4451 1290.83470
1086.6061 1282.02844
1086.7670 1293.94762
1086.9280 1273.52937
1087.0889 1279.81663
1087.2498 1279.65279
1087.4107 1282.00796
1087.5716 1279.65279
1087.7325 1274.55335
1087.8933 1259.56222
1088.0542 1293.64042
1088.2150 1269.82254
1088.3758 1279.22272
1088.5366 1265.72661
1088.6974 1280.65630
1088.8582 1272.42346
1089.0189 1274.98342
1089.1796 1260.75004
1089.3404 1275.96645
1089.5011 1257.98528
1089.6618 1282.56091
1089.8224 1264.37495
1089.9831 1270.21166
1090.1438 1258.19008
1090.3044 1272.01387
1090.4650 1267.93841
1090.6256 1270.90797
1090.7862 1268.71664
1090.9468 1263.28952
1091.1073 1256.83842
1091.2679 1263.92439
1091.4284 1261.01628
1091.5889 1259.48030
1091.7494 1267.26258
1091.9099 1261.13916
1092.0703 1251.53418
1092.2308 1265.03030
1092.3912 1251.61610
1092.5516 1263.08473
1092.7121 1257.06370
1092.8724 1260.48381
1093.0328 1249.85485
1093.1932 1262.24506
1093.3535 1249.62957
1093.5139 1257.80097
1093.6742 1260.70908
1093.8345 1262.75705
1093.9948 1256.24451
1094.1550 1258.06720
1094.3153 1255.09765
1094.4755 1259.80798
1094.6358 1255.03621
1094.7960 1257.35041
1094.9562 1248.93326
1095.1163 1259.35742
1095.2765 1254.87237
1095.4367 1258.74303
1095.5968 1246.88529
1095.7569 1262.42938
1095.9170 1246.35282
1096.0771 1254.07366
1096.2372 1257.32993
1096.3973 1262.14266
1096.5573 1250.12108
1096.7173 1257.45281
1096.8773 1253.93031
1097.0374 1248.91278
1097.1973 1254.64710
1097.3573 1261.58971
1097.5173 1243.60854
1097.6772 1252.10761
1097.8371 1239.22589
1097.9970 1251.53418
1098.1569 1252.16905
1098.3168 1251.82090
1098.4767 1251.61610
1098.6365 1244.77589
1098.7964 1252.90632
1098.9562 1256.42883
1099.1160 1244.18198
1099.2758 1263.92439
1099.4356 1240.61851
1099.5953 1255.81444
1099.7551 1251.53418
1099.9148 1255.58916
1100.0745 1256.44931
1100.2342 1254.09414
1100.3939 1246.37330
1100.5536 1260.62716
1100.7132 1251.30891
1100.8729 1256.34691
1101.0325 1254.31942
1101.1921 1258.78399
1101.3517 1241.56058
1101.5113 1265.23509
1101.6709 1252.39433
1101.8304 1250.12108
1101.9899 1242.62552
1102.1495 1260.36093
1102.3090 1242.62552
1102.4685 1251.51370
1102.6279 1241.76537
1102.7874 1252.41481
1102.9468 1251.39082
1103.1063 1254.89285
1103.2657 1246.72146
1103.4251 1251.61610
1103.5845 1245.55411
1103.7438 1259.21407
1103.9032 1242.99415
1104.0625 1253.37735
1104.2219 1244.03862
1104.3812 1251.00171
1104.5405 1236.01058
1104.6997 1259.29598
1104.8590 1250.01869
1105.0183 1253.25448
1105.1775 1240.41371
1105.3367 1260.70908
1105.4959 1252.21001
1105.6551 1258.04672
1105.8143 1242.64600
1105.9735 1255.52772
1106.1326 1247.15153
1106.2917 1258.70207
1106.4508 1244.38677
1106.6099 1258.21056
1106.7690 1245.79987
1106.9281 1255.30245
1107.0872 1244.53013
1107.2462 1253.11112
1107.4052 1252.55817
1107.5642 1248.72847
1107.7232 1252.10761
1107.8822 1247.29489
1108.0412 1252.61961
1108.2001 1252.06665
1108.3591 1249.77293
1108.5180 1251.84138
1108.6769 1246.86481
1108.8358 1255.54820
1108.9947 1239.47165
1109.1535 1251.82090
1109.3124 1253.54119
1109.4712 1258.76351
1109.6300 1245.77939
1109.7888 1256.57219
1109.9476 1247.43825
1110.1064 1259.62366
1110.2651 1255.95780
1110.4239 1252.21001
1110.5826 1240.70043
1110.7413 1254.64710
1110.9000 1240.57755
1111.0587 1249.83437
1111.2173 1244.14102
1111.3760 1250.14156
1111.5346 1258.92735
1111.6932 1258.59968
1111.8518 1260.60668
1112.0104 1257.55521
1112.1690 1246.94673
1112.3276 1255.01573
1112.4861 1243.28087
1112.6446 1253.35687
1112.8032 1249.99821
1112.9617 1249.38382
1113.1201 1255.56868
1113.2786 1252.35337
1113.4371 1245.61555
1113.5955 1250.03917
1113.7539 1239.49213
1113.9123 1247.97072
1114.0707 1249.52717
1114.2291 1266.64819
1114.3875 1245.32884
1114.5458 1261.69211
1114.7042 1250.63308
1114.8625 1244.61205
1115.0208 1249.85485
1115.1791 1258.12864
1115.3374 1248.31887
1115.4956 1252.33289
1115.6539 1248.91278
1115.8121 1255.67108
1115.9703 1244.75541
1116.1285 1252.39433
1116.2867 1245.57459
1116.4449 1253.62311
1116.6030 1245.57459
1116.7612 1254.89285
1116.9193 1250.61260
1117.0774 1248.99470
1117.2355 1253.54119
1117.3936 1250.63308
1117.5516 1250.05965
1117.7097 1243.23991
1117.8677 1250.55116
1118.0257 1259.15263
1118.1837 1249.56813
1118.3417 1252.88584
1118.4997 1256.36739
1118.6577 1249.52717
1118.8156 1247.49968
1118.9735 1251.26795
1119.1315 1256.51075
1119.2894 1257.59617
1119.4472 1249.52717
1119.6051 1265.91092
1119.7630 1243.30135
1119.9208 1258.88639
1120.0786 1239.71740
1120.2364 1249.60909
1120.3942 1248.17551
1120.5520 1247.62256
1120.7098 1257.37089
1120.8675 1256.85890
1121.0253 1253.04968
1121.1830 1256.38787
1121.3407 1254.85189
1121.4984 1257.14562
1121.6560 1258.16960
