# Averages = 100
# wavelength [µm]	intensity
446.8250 14.33578
447.0374 36746.70328
447.2498 1228.59693
447.4621 1231.42313
447.6745 1228.61741
447.8868 1242.44120
448.0992 1243.85430
448.3115 1236.56353
448.5238 1247.35633
448.7360 1239.26685
448.9483 1248.27791
449.1606 1239.92220
449.3728 1262.26554
449.5850 1235.64195
449.7972 1251.82090
450.0094 1233.63494
450.2216 1252.10761
450.4337 1250.08013
450.6459 1744.70554
450.8580 2110.49324
451.0701 2160.07456
451.2822 2175.06569
451.4943 2163.04411
451.7064 2149.48656
451.9184 2140.78269
452.1305 2247.01083
452.3425 2334.25430
452.5545 2237.81545
452.7665 2249.91895
452.9785 2339.98861
453.1905 2373.47290
453.4024 2341.23787
453.6143 2453.48704
453.8263 2438.78263
454.0382 2641.44961
454.2501 2430.61123
454.4619 2405.93321
454.6738 2555.25061
454.8856 2683.43297
455.0975 2462.02707
455.3093 2462.08851
455.5211 2540.97627
455.7329 2512.48902
455.9446 2552.19914
456.1564 2577.22531
456.3681 2674.81102
456.5798 2781.30540
456.7916 2694.77872
457.0033 2670.81749
457.2149 2648.26935
457.4266 2689.18777
457.6382 2730.04474
457.8499 2700.88167
458.0615 2817.49301
458.2731 2710.54808
458.4847 2846.16457
458.6963 2936.88959
458.9078 2959.92923
459.1194 3138.92170
459.3309 3161.24456
459.5424 2974.67461
459.7539 2881.28723
459.9654 2910.38887
460.1769 2960.46171
460.3883 2921.26358
460.5998 2804.57032
460.8112 2783.06665
461.0226 2835.76089
461.2340 2935.82464
461.4454 2901.54165
461.6567 2878.37912
461.8681 2886.59147
462.0794 2840.67601
462.2907 2969.41133
462.5020 3236.97845
462.7133 3331.28741
462.9246 3084.34334
463.1359 2945.98257
463.3471 2822.85869
463.5583 2883.92911
463.7696 3289.63172
463.9808 3124.07393
464.1919 3058.19078
464.4031 3037.05574
464.6143 3061.67232
464.8254 2979.20062
465.0365 2930.43848
465.2476 3210.88733
465.4587 3382.32279
465.6698 2960.50267
465.8809 3018.64450
466.0919 3017.60003
466.3030 3072.05552
466.5140 3093.12912
466.7250 3026.11958
466.9360 3155.77649
467.1469 3094.66510
467.3579 2883.33520
467.5688 2886.40716
467.7798 3125.91710
467.9907 3249.28674
468.2016 3132.28628
468.4125 3081.02563
468.6233 2943.50453
468.8342 2962.14104
469.0450 3134.12946
469.2559 3247.70980
469.4667 3203.94471
469.6775 2946.35120
469.8882 3121.39109
470.0990 3080.45220
470.3098 3361.47447
470.5205 3190.63291
470.7312 3253.91515
470.9419 3481.87455
471.1526 3379.41467
471.3633 3085.16252
471.5739 3117.90954
471.7846 3112.11379
471.9952 3024.82936
472.2058 3154.09715
472.4164 3130.52503
472.6270 3102.85697
472.8376 3244.74025
473.0481 3423.87607
473.2587 3512.04113
473.4692 3417.24066
473.6797 3302.06289
473.8902 3053.56237
474.1007 3032.38637
474.3111 3066.21881
474.5216 2992.88105
474.7320 3113.91600
474.9424 3271.36384
475.1528 3338.92633
475.3632 3201.75338
475.5736 3162.88294
475.7840 3163.94788
475.9943 3201.69195
476.2046 3235.25815
476.4149 3296.22618
476.6252 3321.96915
476.8355 3423.69176
477.0458 3515.52268
477.2561 3502.45664
477.4663 3328.19497
477.6765 3351.43942
477.8867 3377.85822
478.0969 3363.78867
478.3071 3350.43592
478.5173 3455.39431
478.7274 3409.80653
478.9375 3470.42640
479.1477 3448.02163
479.3578 3585.82944
479.5679 3531.31252
479.7779 3574.77041
479.9880 3567.29533
480.1980 3614.05045
480.4081 3608.88957
480.6181 3483.43101
480.8281 3621.42314
481.0381 3549.12984
481.2480 3539.66823
481.4580 3627.60801
481.6679 3581.61063
481.8778 3537.37450
482.0877 3552.32468
482.2976 3464.67161
482.5075 3542.24867
482.7174 3631.92922
482.9272 3690.37825
483.1371 3568.72890
483.3469 3625.00709
483.5567 3745.46861
483.7665 3619.43661
483.9762 3675.16184
484.1860 3819.01117
484.3957 3814.87427
484.6055 3670.51295
484.8152 3752.51362
485.0249 3872.60651
485.2346 3848.48144
485.4442 3852.94601
485.6539 3881.55613
485.8635 3865.86869
486.0732 3728.16327
486.2828 3777.37596
486.4924 3770.63814
486.7019 3896.50630
486.9115 3850.97996
487.1210 3845.81908
487.3306 3983.15586
487.5401 3951.24851
487.7496 4009.20602
487.9591 4038.45102
488.1686 4006.11359
488.3780 3949.67157
488.5875 4044.00101
488.7969 4141.54576
489.0063 4128.09061
489.2157 4162.29169
489.4251 4090.98142
489.6345 4070.78844
489.8438 4189.50919
490.0531 4007.87484
490.2625 4091.26813
490.4718 4182.01363
490.6811 4239.27483
490.8903 4258.64862
491.0996 4278.35008
491.3089 4296.29028
491.5181 4364.26237
491.7273 4356.31625
491.9365 4338.25316
492.1457 4427.44220
492.3549 4437.55917
492.5640 4350.04946
492.7732 4425.51711
492.9823 4471.20729
493.1914 4600.37268
493.4005 4569.75555
493.6096 4537.43860
493.8187 4493.98071
494.0277 4600.90515
494.2368 4589.86660
494.4458 4645.48943
494.6548 4690.01228
494.8638 4741.62109
495.0728 4730.97165
495.2817 4731.31980
495.4907 4771.07088
495.6996 4789.01108
495.9085 4808.20055
496.1174 4883.23813
496.3263 4865.99423
496.5352 4891.61432
496.7440 4984.46922
496.9529 5034.97213
497.1617 4954.97847
497.3705 4992.90685
497.5793 5127.62224
497.7881 5014.57436
497.9969 5107.69550
498.2056 5166.22645
498.4144 5199.36258
498.6231 5265.08190
498.8318 5261.00644
499.0405 5291.82837
499.2492 5269.77175
499.4578 5310.15769
499.6665 5316.17872
499.8751 5461.93266
500.0837 5453.24927
500.2923 5474.28191
500.5009 5494.80255
500.7095 5614.01482
500.9180 5561.23866
501.1266 5643.01405
501.3351 5657.12456
501.5436 5742.48390
501.7521 5729.49977
501.9606 5815.49398
502.1691 5849.44930
502.3775 5814.87959
502.5860 5880.00500
502.7944 5929.32008
503.0028 5986.31505
503.2112 6000.46652
503.4196 6040.81150
503.6279 6094.32493
503.8363 6044.68216
504.0446 6212.49272
504.2529 6175.26065
504.4612 6240.69325
504.6695 6347.14667
504.8778 6341.08468
505.0860 6367.27820
505.2943 6364.65680
505.5025 6453.98920
505.7107 6489.97201
505.9189 6562.24483
506.1271 6602.30310
506.3353 6596.26159
506.5434 6566.95515
506.7516 6684.52904
506.9597 6744.49357
507.1678 6806.54702
507.3759 6768.53672
507.5840 6841.97688
507.7920 6911.38254
508.0001 6915.74471
508.2081 7063.23942
508.4161 7035.98096
508.6241 7198.83543
508.8321 7182.43120
509.0401 7142.63917
509.2480 7262.28150
509.4560 7284.56340
509.6639 7357.28677
509.8718 7365.88824
510.0797 7495.19699
510.2876 7515.92243
510.4955 7601.95760
510.7033 7652.74723
510.9112 7697.31103
511.1190 7793.99563
511.3268 7748.57168
511.5346 7833.21423
511.7424 7886.78910
511.9501 7993.14011
512.1579 8017.03991
512.3656 8041.43122
512.5733 8037.00760
512.7810 8166.60307
512.9887 8267.50649
513.1964 8297.59115
513.4040 8347.27487
513.6117 8402.44715
513.8193 8493.84799
514.0269 8528.00811
514.2345 8630.48847
514.4421 8607.08018
514.6497 8587.66544
514.8572 8776.46768
515.0647 8846.59013
515.2723 8884.72331
515.4798 8927.68969
515.6873 9036.04772
515.8947 9113.50190
516.1022 9073.34123
516.3097 9160.83045
516.5171 9285.83847
516.7245 9350.28804
516.9319 9424.64979
517.1393 9463.33592
517.3467 9461.24699
517.5540 9467.94385
517.7614 9709.05121
517.9687 9718.20563
518.1760 9753.61501
518.3833 9909.38351
518.5906 9910.01838
518.7978 10090.11675
519.0051 10052.27029
519.2123 10238.00058
519.4196 10053.54003
519.6268 10228.57992
519.8340 10303.88373
520.0411 10314.49221
520.2483 10582.48940
520.4554 10549.23039
520.6626 10811.51375
520.8697 10783.66137
521.0768 10980.12301
521.2839 10930.60313
521.4909 10963.12487
521.6980 11135.56384
521.9050 11314.47439
522.1121 11221.78333
522.3191 11499.99988
522.5261 11454.80121
522.7331 11526.23436
522.9400 11725.93179
523.1470 11737.62570
523.3539 11855.30198
523.5608 11847.00771
523.7677 11868.18370
523.9746 12025.83634
524.1815 12302.04588
524.3884 12196.37070
524.5952 12220.70056
524.8020 12499.79775
525.0089 12436.10592
525.2157 12570.37075
525.4225 12644.89633
525.6292 12678.21678
525.8360 12764.14955
526.0427 12871.91367
526.2494 13058.01259
526.4562 13019.32646
526.6629 13162.66379
526.8695 13137.08466
527.0762 13423.86172
527.2829 13469.63383
527.4895 13578.74960
527.6961 13697.32699
527.9027 13853.66893
528.1093 13898.94952
528.3159 13931.16406
528.5224 13880.53828
528.7290 14302.87039
528.9355 14126.92940
529.1420 14518.25527
529.3485 14414.75093
529.5550 14612.62567
529.7615 14562.06132
529.9680 14747.48441
530.1744 14748.05784
530.3808 15000.63383
530.5872 14950.60195
530.7936 15069.65037
531.0000 15155.50122
531.2064 15347.64165
531.4127 15439.30873
531.6191 15552.39757
531.8254 15647.15708
532.0317 15883.14452
532.2380 15821.27538
532.4443 15904.87347
532.6505 15759.30385
532.8568 16062.56706
533.0630 16363.45463
533.2692 16272.48386
533.4754 16437.44774
533.6816 16649.18723
533.8878 16526.20671
534.0939 16907.84568
534.3001 16942.41540
534.5062 17036.97011
534.7123 16951.16022
534.9184 17076.41399
535.1245 17225.89523
535.3306 17218.85022
535.5366 17605.79343
535.7426 17628.66924
535.9487 17684.88599
536.1547 17661.04763
536.3607 17968.20198
536.5666 17882.88360
536.7726 18004.49199
536.9785 18223.46081
537.1845 18427.35658
537.3904 18293.68566
537.5963 18368.33412
537.8022 18577.51365
538.0080 18773.13562
538.2139 18836.35642
538.4197 18958.53823
538.6256 18930.52202
538.8314 18988.58193
539.0372 19121.43367
539.2430 19512.98481
539.4487 19334.66817
539.6545 19672.60350
539.8602 19562.05414
540.0659 19771.84806
540.2716 20236.61409
540.4773 20285.47862
540.6830 20360.74147
540.8887 20493.20409
541.0943 20253.36647
541.2999 20391.19477
541.5056 20420.56264
541.7112 20695.99396
541.9167 20608.23850
542.1223 20639.83866
542.3279 21057.54236
542.5334 21119.16574
542.7389 21322.83623
542.9444 21403.48524
543.1499 21488.70122
543.3554 21435.86363
543.5609 21818.38323
543.7663 21857.39704
543.9718 21728.35453
544.1772 21876.46363
544.3826 21937.98461
544.5880 22539.65735
544.7934 22387.12463
544.9987 22453.82698
545.2041 22829.07629
545.4094 22771.75365
545.6147 22813.10213
545.8200 23146.90056
546.0253 23102.93067
546.2306 23375.00332
546.4358 23197.30107
546.6411 23538.94322
546.8463 23356.46920
547.0515 23681.85048
547.2567 23837.04555
547.4619 23896.51856
547.6670 23965.69895
547.8722 24116.85952
548.0773 24456.08506
548.2824 24498.78521
548.4876 24585.12757
548.6926 24669.62677
548.8977 24797.27666
549.1028 24919.06936
549.3078 25123.76384
549.5129 25143.40386
549.7179 25280.20817
549.9229 25461.39196
550.1279 25336.22011
550.3328 25721.27920
550.5378 25397.27006
550.7427 25758.10168
550.9476 25917.59748
551.1526 25344.78062
551.3575 25935.64009
551.5623 26088.09088
551.7672 25973.30223
551.9720 26081.37354
552.1769 26209.94502
552.3817 26453.26419
552.5865 26290.67595
552.7913 26549.58016
552.9961 26397.00649
553.2008 26592.30079
553.4056 26932.36600
553.6103 26862.57122
553.8150 27098.41530
554.0197 27200.38367
554.2244 27044.34893
554.4291 27116.88798
554.6337 27565.51602
554.8384 27345.91233
555.0430 27558.65532
555.2476 27321.43910
555.4522 27352.62967
555.6568 27719.23655
555.8613 27859.80913
556.0659 27998.94812
556.2704 27725.76957
556.4750 28078.28643
556.6795 28306.57351
556.8839 27981.29463
557.0884 28514.17610
557.2929 28333.13566
557.4973 28205.42433
557.7018 28325.96777
557.9062 28507.92980
558.1106 28539.91907
558.3150 28392.99779
558.5193 28808.46921
558.7237 28861.85976
558.9280 28606.51901
559.1323 28862.90422
559.3367 28640.08522
559.5410 28911.27724
559.7452 28690.42429
559.9495 29010.41941
560.1537 28995.46924
560.3580 28948.16116
560.5622 29130.20510
560.7664 29405.02203
560.9706 29436.49931
561.1748 29540.04461
561.3789 29504.63523
561.5831 29505.22914
561.7872 29464.86367
561.9913 29714.75682
562.1954 29635.23420
562.3995 29807.83700
562.6036 29826.92407
562.8076 29629.37700
563.0117 29895.01903
563.2157 29772.55050
563.4197 29985.84645
563.6237 30210.57006
563.8277 29894.87567
564.0316 29733.84389
564.2356 30130.43304
564.4395 30135.14337
564.6434 30301.88898
564.8473 30505.19084
565.0512 30490.52738
565.2551 30415.24405
565.4590 30546.43693
565.6628 30761.39173
565.8666 30968.05226
566.0705 30692.12943
566.2743 30680.64032
566.4780 30811.30073
566.6818 30722.41889
566.8856 31236.64336
567.0893 30862.62283
567.2930 30994.43010
567.4967 30719.51077
567.7004 30910.15618
567.9041 31022.99926
568.1078 31058.28576
568.3114 31252.00313
568.5151 31224.06883
568.7187 30910.17666
568.9223 31088.04275
569.1259 31281.67819
569.3295 31665.93857
569.5330 31560.05858
569.7366 31581.74657
569.9401 31651.31607
570.1436 31760.88240
570.3471 31850.54247
570.5506 31825.92589
570.7541 31762.58221
570.9575 31711.03484
571.1609 31426.92014
571.3644 32007.60120
571.5678 31952.46988
571.7712 32327.59631
571.9746 32208.40453
572.1779 31938.72801
572.3813 31837.49691
572.5846 32112.55959
572.7879 32008.35894
572.9912 32643.39309
573.1945 32521.62087
573.3978 32107.54207
573.6010 32454.20174
573.8043 32973.58710
574.0075 32120.87435
574.2107 32270.13031
574.4139 32261.18069
574.6171 32411.48111
574.8203 32212.25471
575.0234 32651.48257
575.2266 32117.35184
575.4297 32231.79233
575.6328 32406.77078
575.8359 32770.36716
576.0390 32121.50922
576.2420 32270.00743
576.4451 31986.85527
576.6481 32381.49885
576.8512 32845.50713
577.0542 32127.83744
577.2571 32587.95458
577.4601 32632.27262
577.6631 32513.92051
577.8660 32330.72970
578.0689 32224.31725
578.2719 32376.60420
578.4748 32202.03535
578.6776 32226.75433
578.8805 32313.95684
579.0834 31752.69052
579.2862 32294.23490
579.4890 32715.13344
579.6918 32444.69917
579.8946 32128.39039
580.0974 32569.01087
580.3002 32213.87261
580.5029 32126.34242
580.7057 32510.07033
580.9084 32037.97257
581.1111 32618.46931
581.3138 32359.68798
581.5164 32143.89352
581.7191 31944.46232
581.9217 32062.01572
582.1244 32130.19260
582.3270 32145.55237
582.5296 32057.94027
582.7322 32327.22768
582.9347 32212.43903
583.1373 31930.33133
583.3398 32222.82223
583.5424 31914.41862
583.7449 31824.90190
583.9474 31715.35605
584.1498 31662.80518
584.3523 32131.19611
584.5548 31766.59623
584.7572 31992.83534
584.9596 32204.92298
585.1620 32789.96622
585.3644 31890.21163
585.5668 31898.34206
585.7691 32191.14015
585.9715 32061.19654
586.1738 32336.95553
586.3761 32294.84929
586.5784 32493.74802
586.7807 32438.26854
586.9830 32430.50674
587.1852 32413.24237
587.3875 32074.93841
587.5897 32634.09532
587.7919 32384.48888
587.9941 32029.76022
588.1963 32148.84960
588.3984 32521.06792
588.6006 31962.73020
588.8027 32602.20844
589.0048 32254.01280
589.2069 32323.84853
589.4090 32404.06747
589.6111 32587.95458
589.8131 32515.96848
590.0152 32728.97771
590.2172 32630.59329
590.4192 32957.87918
590.6212 32619.47282
590.8232 32435.17611
591.0252 32806.16565
591.2271 32956.58895
591.4291 32887.42905
591.6310 32728.60907
591.8329 32718.84026
592.0348 33083.41966
592.2367 33090.79235
592.4385 33426.39299
592.6404 33490.94496
592.8422 33587.05613
593.0440 33685.72727
593.2458 33955.62907
593.4476 34109.75920
593.6494 34138.00069
593.8512 34292.99096
594.0529 34566.25143
594.2546 34454.73953
594.4563 34425.41262
594.6580 34162.78111
594.8597 34131.75438
595.0614 34227.82460
595.2630 34502.19097
595.4647 34446.03567
595.6663 34162.33056
595.8679 34537.96898
596.0695 35007.05623
596.2711 34778.19572
596.4727 34919.64892
596.6742 35177.44723
596.8757 35326.06832
597.0773 35194.01529
597.2788 34843.03441
597.4802 35217.44406
597.6817 35664.67947
597.8832 35427.56565
598.0846 35753.84803
598.2860 35630.92895
598.4875 35318.04028
598.6889 35881.35457
598.8902 35972.20246
599.0916 36077.85717
599.2930 35669.36932
599.4943 36224.81940
599.6956 36236.49283
599.8969 36029.99614
600.0982 35693.18720
600.2995 35817.66274
600.5008 36602.11669
600.7020 35963.43715
600.9032 36467.87234
601.1045 36284.08762
601.3057 35994.34100
601.5068 36706.44022
601.7080 36738.55237
601.9092 36387.61244
602.1103 36982.50640
602.3115 36820.61447
602.5126 37010.42022
602.7137 36866.96001
602.9147 36873.26775
603.1158 37114.23175
603.3169 37419.05142
603.5179 37256.07407
603.7189 37110.11534
603.9199 37291.40153
604.1209 37229.53239
604.3219 37215.23757
604.5229 37269.54970
604.7238 37563.92473
604.9247 37572.71052
605.1257 37732.88215
605.3266 37984.04504
605.5275 37536.68675
605.7283 37715.18770
605.9292 37921.56151
606.1300 37288.78013
606.3309 37489.13291
606.5317 37919.43163
606.7325 38035.18282
606.9332 37964.77365
607.1340 38229.90369
607.3348 38123.06116
607.5355 37604.33115
607.7362 38659.81329
607.9369 37884.41136
608.1376 38116.42574
608.3383 37874.08960
608.5390 38752.85251
608.7396 38363.36981
608.9402 39024.65892
609.1409 38950.95253
609.3415 38624.28103
609.5421 38504.14718
609.7426 38851.81036
609.9432 38305.33038
610.1437 38164.61445
610.3443 39011.87960
610.5448 38739.97079
610.7453 39113.66364
610.9457 38907.53559
611.1462 39063.30409
611.3467 38921.52322
611.5471 39281.74044
611.7475 38702.43152
611.9479 39531.89982
612.1483 38981.07815
612.3487 39560.38707
612.5491 39390.54902
612.7494 40019.27543
612.9497 39353.86990
613.1501 39776.61161
613.3504 39568.00551
613.5506 40278.99882
613.7509 39901.51722
613.9512 39752.77325
614.1514 39945.09800
614.3516 40419.32564
614.5519 40207.62711
614.7521 40374.35225
614.9522 40023.28944
615.1524 40006.63946
615.3526 40467.24811
615.5527 41017.16868
615.7528 40605.38360
615.9529 40655.80459
616.1530 41083.50239
616.3531 41063.10462
616.5532 40969.63532
616.7532 40608.41460
616.9532 40927.54957
617.1533 40691.50069
617.3533 41170.60250
617.5532 40731.76375
617.7532 40995.37829
617.9532 40187.61846
618.1531 41202.63273
618.3530 40665.34813
618.5530 40910.36711
618.7528 41038.54947
618.9527 41117.04811
619.1526 40700.06120
619.3524 40770.22461
619.5523 41063.02270
619.7521 41201.46539
619.9519 41226.96260
620.1517 41242.77292
620.3515 41545.97469
620.5512 41829.76172
620.7510 41608.76541
620.9507 41311.52323
621.1504 41376.62815
621.3501 41496.76200
621.5498 41684.47882
621.7495 41861.15708
621.9492 41415.12997
622.1488 41214.36759
622.3484 41214.94102
622.5480 41116.16749
622.7476 41879.34304
622.9472 41138.75658
623.1468 41378.38941
623.3463 42548.49635
623.5459 42172.73505
623.7454 41940.51587
623.9449 41937.64871
624.1444 41887.96499
624.3439 42322.62588
624.5433 42091.18493
624.7428 41837.35968
624.9422 41995.27855
625.1416 42095.38327
625.3410 42082.29675
625.5404 41969.84278
625.7398 41978.05514
625.9391 42234.78850
626.1385 41821.71320
626.3378 41965.35773
626.5371 42649.58409
626.7364 41917.92677
626.9357 42354.20556
627.1350 42325.00152
627.3342 41989.58520
627.5335 41801.88886
627.7327 41973.81584
627.9319 42028.80380
628.1311 43046.48043
628.3303 42324.67385
628.5294 42541.49230
628.7286 42643.91122
628.9277 42917.80656
629.1268 42613.66272
629.3259 43235.79466
629.5250 43204.97273
629.7241 43169.60431
629.9231 42381.09539
630.1222 43253.05904
630.3212 43103.61876
630.5202 42684.78867
630.7192 43228.01238
630.9182 42614.50238
631.1171 42853.84849
631.3161 42611.67619
631.5150 42535.18455
631.7140 42881.33223
631.9129 43000.95409
632.1118 43440.16147
632.3106 43343.84550
632.5095 43109.31211
632.7083 42977.58676
632.9072 43086.29295
633.1060 43244.25277
633.3048 43259.36678
633.5036 42745.79766
633.7023 43055.20478
633.9011 43532.44294
634.0998 43343.53830
634.2986 43578.35840
634.4973 43193.15595
634.6960 43414.25466
634.8947 43254.98413
635.0933 43557.71487
635.2920 43114.75971
635.4906 42768.42772
635.6892 43572.50121
635.8878 43592.34602
636.0864 43538.68924
636.2850 43254.82029
636.4836 43285.94942
636.6821 43347.08129
636.8806 43455.76699
637.0792 43460.00628
637.2777 43451.34337
637.4761 43493.85921
637.6746 43182.89563
637.8731 43592.59178
638.0715 43078.53114
638.2699 43737.93612
638.4683 43496.97212
638.6667 42731.46188
638.8651 43624.74489
639.0635 43798.16688
639.2618 43850.90208
639.4602 43733.22579
639.6585 43616.00006
639.8568 43815.30838
640.0551 43901.13875
640.2534 43720.75366
640.4516 43544.79219
640.6499 43712.54131
640.8481 44452.69770
641.0463 44201.26857
641.2445 44497.89637
641.4427 44268.33955
641.6409 44025.24566
641.8390 44272.84508
642.0372 44605.20993
642.2353 44477.06852
642.4334 43869.04708
642.6315 44191.39736
642.8296 44140.17766
643.0277 43929.46216
643.2257 44646.12834
643.4237 44641.80713
643.6218 44509.54931
643.8198 44251.87388
644.0178 44353.00258
644.2157 44304.54764
644.4137 44202.02632
644.6116 44977.65353
644.8096 45240.57175
645.0075 44065.87736
645.2054 44732.34783
645.4033 44637.69071
645.6011 44518.90852
645.7990 44501.33695
645.9968 44739.82291
646.1947 44655.99955
646.3925 44878.85951
646.5903 44680.06319
646.7881 44903.82425
646.9858 44652.86616
647.1836 44507.54230
647.3813 44300.02163
647.5790 44814.71713
647.7767 45376.04489
647.9744 44507.23510
648.1721 44504.24507
648.3698 45201.51699
648.5674 44368.64906
648.7650 44873.43240
648.9627 44491.52718
649.1603 45386.55097
649.3578 45029.85625
649.5554 45146.13991
649.7530 45538.98128
649.9505 44389.04683
650.1480 45130.04288
650.3455 45425.97436
650.5430 44779.55351
650.7405 44865.24052
650.9380 44704.14730
651.1354 45125.20967
651.3329 44732.36831
651.5303 45167.33639
651.7277 45214.41919
651.9251 45310.71468
652.1225 45125.55783
652.3198 44980.95075
652.5172 45211.85923
652.7145 45524.80934
652.9118 45304.85749
653.1091 45259.96602
653.3064 45596.18105
653.5037 45349.44177
653.7009 44973.78286
653.8982 45369.79858
654.0954 45884.94464
654.2926 45984.00489
654.4898 45830.32531
654.6870 45771.34381
654.8841 46337.54573
655.0813 45770.46319
655.2784 45817.79175
655.4755 46333.53172
655.6726 46498.65944
655.8697 45810.46002
656.0668 46204.67352
656.2639 45815.82570
656.4609 45872.41107
656.6579 45983.80009
656.8550 46168.40400
657.0520 46079.46071
657.2490 45447.21180
657.4459 46111.47046
657.6429 46256.03658
657.8398 46035.18363
658.0367 46484.15982
658.2337 46309.85720
658.4305 46611.97355
658.6274 46630.65102
658.8243 46482.05041
659.0211 46753.54963
659.2180 46632.96523
659.4148 46789.98299
659.6116 47053.33129
659.8084 46960.53783
660.0052 47353.74783
660.2019 47073.42187
660.3987 46853.57242
660.5954 46880.07314
660.7921 46897.50135
660.9888 46535.11328
661.1855 46986.95662
661.3822 47189.37786
661.5788 46557.92765
661.7755 46853.90010
661.9721 46480.10484
662.1687 46981.63191
662.3653 46907.31112
662.5619 47064.49272
662.7584 46492.10594
662.9550 46740.74982
663.1515 47120.97570
663.3480 46728.35961
663.5445 47334.41500
663.7410 46603.02392
663.9375 46850.82814
664.1340 46876.81687
664.3304 47190.29944
664.5268 46828.54624
664.7233 47343.99950
664.9197 47172.42068
665.1160 47267.61026
665.3124 47070.43183
665.5088 47154.45999
665.7051 47260.29901
665.9014 47138.54727
666.0977 46967.68524
666.2940 46925.76332
666.4903 47222.45255
666.6866 47244.22246
666.8828 46906.53289
667.0791 47003.11510
667.2753 47272.97594
667.4715 47135.47532
667.6677 47676.38483
667.8639 47882.59480
668.0600 47136.94986
668.2562 47415.04353
668.4523 47292.53404
668.6484 47393.15075
668.8445 46936.86331
669.0406 48044.17953
669.2367 47907.53906
669.4327 48009.38454
669.6287 47718.67538
669.8248 47584.43103
670.0208 47845.44465
670.2168 47677.22449
670.4128 47813.33250
670.6087 47797.46074
670.8047 47696.96691
671.0006 48418.17959
671.1965 47278.30066
671.3924 47952.81965
671.5883 47461.88058
671.7842 47612.05813
671.9801 46995.96769
672.1759 47442.87543
672.3717 47175.61551
672.5675 47887.59184
672.7633 47795.84284
672.9591 48023.08545
673.1549 48469.15353
673.3506 47814.78655
673.5464 47414.26530
673.7421 48046.28894
673.9378 47880.52635
674.1335 47611.77141
674.3292 47959.10691
674.5249 47470.05197
674.7205 46670.38162
674.9161 47113.21390
675.1118 47068.36338
675.3074 47103.81372
675.5030 47167.32123
675.6985 47686.07172
675.8941 47480.39422
676.0896 47588.93656
676.2852 47732.51965
676.4807 47561.32994
676.6762 47759.30708
676.8717 48080.49002
677.0671 47769.91556
677.2626 48420.90338
677.4580 47903.23832
677.6534 47970.53458
677.8489 47593.36017
678.0442 47678.04368
678.2396 46950.48230
678.4350 47252.86489
678.6303 47413.01604
678.8257 47287.35268
679.0210 47588.67032
679.2163 47211.27064
679.4116 47424.68947
679.6069 47170.72086
679.8021 46751.05110
679.9974 46747.65148
680.1926 47154.37807
680.3878 47004.83539
680.5830 47006.06417
680.7782 47059.43424
680.9734 46894.28604
681.1685 46864.91817
681.3636 46853.38810
681.5588 46927.40169
681.7539 46751.15350
681.9490 46863.87370
682.1441 46773.29205
682.3391 46394.88886
682.5342 47097.50598
682.7292 47145.36701
682.9242 47324.17516
683.1192 47040.40861
683.3142 47589.98102
683.5092 47457.43649
683.7041 47583.55040
683.8991 47439.51676
684.0940 47287.84419
684.2889 46739.37768
684.4838 47193.12564
684.6787 46818.65455
684.8736 45982.26412
685.0684 46908.78566
685.2633 46574.37284
685.4581 46670.60689
685.6529 47048.00657
685.8477 47283.17483
686.0425 47256.63315
686.2372 46887.20007
686.4320 46758.34187
686.6267 46796.41361
686.8214 46536.79261
687.0161 46456.83991
687.2108 46663.95099
687.4055 46462.06223
687.6002 46689.07957
687.7948 46645.10968
687.9894 47031.39755
688.1841 46619.89919
688.3787 46693.23695
688.5732 46288.29209
688.7678 46607.71377
688.9624 46325.85183
689.1569 46384.50566
689.3514 46139.85531
689.5459 45735.77060
689.7404 46011.52959
689.9349 46057.11737
690.1294 46087.18155
690.3238 46153.00327
690.5182 46254.31628
690.7127 46380.63500
690.9071 46194.33128
691.1015 45901.61511
691.2958 46135.61602
691.4902 46374.53205
691.6845 47233.85974
691.8789 46469.96739
692.0732 46359.72524
692.2675 46224.04731
692.4618 46433.57499
692.6560 46289.84854
692.8503 46777.71566
693.0445 46670.87313
693.2387 45962.25546
693.4329 46474.69820
693.6271 46330.70552
693.8213 46387.82337
694.0155 46593.74663
694.2096 46291.38452
694.4038 46011.18143
694.5979 46094.41088
694.7920 46033.83197
694.9861 45968.74752
695.1801 45874.41808
695.3742 45760.79678
695.5682 45768.31282
695.7623 45637.57050
695.9563 45450.75479
696.1503 45885.08800
696.3443 45190.33508
696.5382 45739.37502
696.7322 45629.50150
696.9261 45969.64863
697.1201 45447.45756
697.3140 45796.20615
697.5079 46009.76834
697.7017 45286.69201
697.8956 45362.34397
698.0894 45094.46966
698.2833 45570.45856
698.4771 45681.68374
698.6709 46001.57646
698.8647 45205.14189
699.0585 45992.27868
699.2522 45041.16104
699.4460 45407.89080
699.6397 45399.65797
699.8334 45173.27550
700.0271 45045.52321
700.2208 45257.73373
700.4144 45600.80946
700.6081 45484.34147
700.8017 45232.80995
700.9954 45764.17592
701.1890 45491.87800
701.3826 44854.50916
701.5761 44904.35672
701.7697 45098.01265
701.9632 44788.11402
702.1568 45034.50514
702.3503 44903.74233
702.5438 44597.34573
702.7373 44054.53161
702.9308 44904.50008
703.1242 45015.62287
703.3177 44721.10448
703.5111 45084.63941
703.7045 45242.18965
703.8979 45252.49093
704.0913 45116.54677
704.2847 45289.23149
704.4780 45480.22506
704.6713 44490.46224
704.8647 44704.92553
705.0580 44530.84818
705.2513 43875.66202
705.4445 44464.88311
705.6378 44502.38142
705.8311 43720.28263
706.0243 43758.53869
706.2175 44442.51929
706.4107 44233.17593
706.6039 44168.72635
706.7971 44138.82600
706.9902 44402.29718
707.1834 44281.79470
707.3765 43847.25669
707.5696 43861.94063
707.7627 44005.38036
707.9558 44097.02696
708.1489 43514.76897
708.3419 43056.06493
708.5349 43300.46952
708.7280 43194.79433
708.9210 43892.20961
709.1140 43728.53595
709.3069 43382.40875
709.4999 43250.88819
709.6929 43598.59233
709.8858 43250.41716
710.0787 43381.11853
710.2716 42728.79952
710.4645 43306.22431
710.6574 43331.84440
710.8502 43619.33825
711.0431 43132.18793
711.2359 42915.06228
711.4287 42878.89515
711.6215 43115.64034
711.8143 42986.65927
712.0071 42983.48491
712.1998 42850.22359
712.3925 43117.72927
712.5853 43264.65054
712.7780 43302.08741
712.9707 42965.05320
713.1633 42992.33214
713.3560 43026.92233
713.5487 42838.95976
713.7413 42975.68215
713.9339 42800.45795
714.1265 42589.16901
714.3191 42730.66317
714.5117 42197.98650
714.7042 42583.20942
714.8968 42784.36091
715.0893 43322.99717
715.2818 43152.15562
715.4743 43221.06977
715.6668 42808.19927
715.8592 43252.95664
716.0517 42873.85715
716.2441 42894.23444
716.4366 42626.42156
716.6290 42777.93029
716.8214 42767.03510
717.0137 42868.83962
717.2061 42758.45411
717.3984 42698.18239
717.5908 42324.03898
717.7831 42159.83284
717.9754 42784.11516
718.1677 41774.42560
718.3600 42377.69576
718.5522 42102.18252
718.7445 42037.52815
718.9367 41686.79302
719.1289 41865.19158
719.3211 41563.91490
719.5133 41702.09135
719.7054 41598.32077
719.8976 42000.68519
720.0897 41822.42999
720.2818 41787.96268
720.4740 41860.95228
720.6660 41955.83468
720.8581 41936.27657
721.0502 41651.62940
721.2422 41403.88662
721.4343 41621.29898
721.6263 41711.32769
721.8183 41602.53959
722.0103 42006.64478
722.2022 41831.64585
722.3942 42032.55158
722.5861 41673.05115
722.7781 42214.45217
722.9700 41719.27380
723.1619 41447.91795
723.3538 41320.78005
723.5456 41485.51865
723.7375 41275.58137
723.9293 41525.12637
724.1211 41177.42223
724.3129 41183.36134
724.5047 40707.29053
724.6965 40736.41264
724.8883 40931.82982
725.0800 40749.51964
725.2718 41131.91637
725.4635 40814.91128
725.6552 40728.77372
725.8469 40860.82674
726.0385 41122.02468
726.2302 40848.72325
726.4218 40130.35725
726.6135 40156.48933
726.8051 40030.74405
726.9967 40435.56603
727.1882 40667.47801
727.3798 40996.66851
727.5714 40722.09734
727.7629 41082.78560
727.9544 41123.51970
728.1459 40447.03466
728.3374 40268.47226
728.5289 41005.45430
728.7204 40483.95953
728.9118 40954.23460
729.1032 41219.46703
729.2946 40957.26559
729.4860 40213.87342
729.6774 40557.50209
729.8688 40537.26816
730.0602 40280.73960
730.2515 40591.45741
730.4428 40825.92936
730.6341 40482.28020
730.8254 40378.36627
731.0167 40719.39402
731.2080 40757.05617
731.3992 40580.45982
731.5905 40462.78354
731.7817 40435.81179
731.9729 39846.71358
732.1641 40202.69151
732.3553 39652.42278
732.5464 40105.59731
732.7376 39958.94227
732.9287 40024.98926
733.1198 39929.24672
733.3109 40069.57354
733.5020 39853.08276
733.6931 40412.95646
733.8841 40235.00845
734.0752 40564.17847
734.2662 40060.78775
734.4572 39934.38712
734.6482 39384.91710
734.8392 39455.01908
735.0302 39350.92082
735.2211 39146.84074
735.4120 39121.20017
735.6030 39636.96062
735.7939 39536.13912
735.9848 39534.05019
736.1756 39135.63835
736.3665 39363.04480
736.5574 38960.51654
736.7482 38977.37132
736.9390 38776.09695
737.1298 39121.42545
737.3206 39170.10566
737.5114 39410.82391
737.7021 38852.03564
737.8929 38819.45245
738.0836 38896.23080
738.2743 39206.53903
738.4650 39182.92595
738.6557 38824.18326
738.8463 38517.17227
739.0370 38430.11311
739.2276 38260.37746
739.4182 38277.41656
739.6088 38682.60718
739.7994 38410.51405
739.9900 38529.99255
740.1806 38488.41878
740.3711 38586.65985
740.5617 38911.32433
740.7522 38713.55199
740.9427 38617.54321
741.1332 38655.10296
741.3236 38179.13454
741.5141 38370.43530
741.7045 38690.98337
741.8949 38724.34478
742.0854 38522.25123
742.2758 38624.13767
742.4661 38123.38883
742.6565 37816.62360
742.8469 38070.12117
743.0372 38355.28034
743.2275 37999.05665
743.4178 38305.22798
743.6081 38342.27573
743.7984 38233.26236
743.9886 38275.36860
744.1789 38040.24130
744.3691 37798.54003
744.5593 37783.11883
744.7495 37549.26128
744.9397 37718.48493
745.1299 37429.78278
745.3200 36951.07008
745.5102 37336.74356
745.7003 37355.64631
745.8904 37507.93327
746.0805 37494.21187
746.2706 37419.29718
746.4607 37440.41174
746.6507 37401.09074
746.8408 36986.13131
747.0308 37444.61007
747.2208 37050.92904
747.4108 37156.89094
747.6007 37346.90148
747.7907 37737.51056
747.9806 37452.10564
748.1706 37484.95506
748.3605 37107.98545
748.5504 37076.67201
748.7403 37566.81237
748.9302 37000.63093
749.1200 37052.44454
749.3098 37032.41540
749.4997 36777.91432
749.6895 36900.52621
749.8793 36744.38908
750.0691 37184.94811
750.2588 36856.74064
750.4486 36673.81607
750.6383 36829.97369
750.8280 36258.89760
751.0177 36173.00580
751.2074 36270.44815
751.3971 36415.05522
751.5868 36416.52976
751.7764 36225.43380
751.9660 35863.23004
752.1557 36071.85662
752.3453 36274.89224
752.5348 36458.47216
752.7244 36769.90677
752.9140 36788.27705
753.1035 36450.73084
753.2930 36594.35489
753.4825 36201.41112
753.6720 36495.86807
753.8615 36479.25904
754.0510 36098.62357
754.2404 36025.30629
754.4299 36040.05166
754.6193 35979.02220
754.8087 35795.50372
754.9981 35877.38151
755.1875 35581.90058
755.3768 35417.83780
755.5662 35652.86269
755.7555 35645.87912
755.9448 35671.90880
756.1341 35670.16803
756.3234 35222.09295
756.5127 35196.41142
756.7019 35505.47038
756.8912 35597.58802
757.0804 35407.51604
757.2696 35488.34936
757.4588 35221.88815
757.6480 35036.62890
757.8371 34704.53028
758.0263 34788.43556
758.2154 34928.92622
758.4045 34609.38165
758.5936 34433.78881
758.7827 34814.40381
758.9718 35067.61466
759.1609 34689.76443
759.3499 34626.95323
759.5389 34087.66162
759.7280 34458.97883
759.9170 34591.29809
760.1059 34559.43170
760.2949 34452.07717
760.4839 34944.18359
760.6728 34654.43697
760.8617 34531.10829
761.0506 34162.26912
761.2395 33881.90220
761.4284 34240.11241
761.6173 34074.26790
761.8061 34115.45255
761.9950 34085.67509
762.1838 33789.55928
762.3726 34295.71476
762.5614 33854.88949
762.7502 34193.60304
762.9389 33486.07080
763.1277 33668.23762
763.3164 34078.50720
763.5051 33968.24456
763.6938 34223.58530
763.8825 33855.87251
764.0712 34543.53946
764.2598 34080.78044
764.4484 34240.46056
764.6371 34281.25610
764.8257 33986.08237
765.0143 34221.02534
765.2029 33825.03010
765.3914 33904.34793
765.5800 34169.96948
765.7685 33653.28744
765.9570 33746.81818
766.1455 33318.01448
766.3340 32954.64338
766.5225 33119.07480
766.7110 33089.31781
766.8994 32877.16873
767.0878 32619.28850
767.2762 32874.64972
767.4646 32805.59222
767.6530 32967.48415
767.8414 33066.46248
768.0298 32737.64062
768.2181 32622.52429
768.4064 32652.91615
768.5947 32660.82131
768.7830 32555.82195
768.9713 32529.07548
769.1596 32261.97939
769.3478 32148.23521
769.5360 32316.55776
769.7243 32234.78237
769.9125 31983.82428
770.1007 31751.37982
770.2888 31780.44050
770.4770 31910.93707
770.6651 31927.17746
770.8533 31579.47333
771.0414 31480.59740
771.2295 31721.35660
771.4176 31960.88703
771.6056 32037.33770
771.7937 31770.15970
771.9817 31504.98870
772.1698 32067.34044
772.3578 31945.99830
772.5458 31594.75118
772.7337 31104.26266
772.9217 31525.98038
773.1096 31299.92559
773.2976 31540.25473
773.4855 31816.93530
773.6734 31114.23627
773.8613 31130.35378
774.0492 31308.77282
774.2370 31114.99402
774.4249 31214.52530
774.6127 31474.00294
774.8005 31256.40626
774.9883 31253.39574
775.1761 31420.34616
775.3639 30926.02794
775.5516 31028.18062
775.7394 30750.53750
775.9271 30831.14555
776.1148 30804.33764
776.3025 30106.65612
776.4902 30271.06705
776.6778 30252.26670
776.8655 30669.51985
777.0531 30873.88665
777.2407 30780.21256
777.4283 30450.55103
777.6159 30592.29095
777.8035 30303.58880
777.9911 30107.06572
778.1786 30381.59593
778.3661 29942.83910
778.5536 30247.84309
778.7411 30290.64563
778.9286 30631.18188
779.1161 30367.54686
779.3036 29884.36959
779.4910 29904.70592
779.6784 30033.31836
779.8658 30250.56689
780.0532 29691.18470
780.2406 30019.71985
780.4280 29686.90445
780.6153 29902.59652
780.8026 29872.12274
780.9900 30044.35691
781.1773 29506.86751
781.3646 29880.62181
781.5518 29704.37362
781.7391 29556.34644
781.9263 29685.96238
782.1136 29580.53295
782.3008 29291.81032
782.4880 29400.61890
782.6752 29251.07622
782.8623 29181.17904
783.0495 29504.65571
783.2366 28893.97191
783.4237 29074.76659
783.6108 29319.62173
783.7979 29099.75181
783.9850 29190.47682
784.1721 29389.08883
784.3591 28875.00772
784.5462 28748.21797
784.7332 28863.21142
784.9202 29028.76921
785.1072 28549.50356
785.2941 28526.58679
785.4811 28377.20795
785.6681 28514.05322
785.8550 28564.76093
786.0419 28329.38788
786.2288 28174.97104
786.4157 28094.95690
786.6025 28146.66811
786.7894 28314.49915
786.9762 28234.25973
787.1631 27654.88937
787.3499 27958.97177
787.5367 28092.19214
787.7234 27703.42623
787.9102 28053.40361
788.0970 28154.55279
788.2837 28163.89153
788.4704 27624.23128
788.6571 27325.28928
788.8438 27264.89468
789.0305 27209.49713
789.2171 27171.28203
789.4038 27091.92324
789.5904 27314.49649
789.7770 27371.30714
789.9636 27362.82855
790.1502 27476.12218
790.3368 27391.93019
790.5233 27481.61074
790.7099 27157.51968
790.8964 26699.38907
791.0829 26637.84761
791.2694 26512.63480
791.4559 26630.45445
791.6423 26585.21482
791.8288 26698.34461
792.0152 26939.30861
792.2016 26953.13240
792.3880 27210.95119
792.5744 26655.50110
792.7608 26201.50739
792.9471 26280.00603
793.1335 26847.94873
793.3198 26486.27745
793.5061 26571.12479
793.6924 26128.29251
793.8787 26045.57505
794.0650 25966.85113
794.2512 26360.20449
794.4375 26388.60982
794.6237 26547.98274
794.8099 26488.65309
794.9961 25985.93820
795.1823 25973.56847
795.3684 26088.15232
795.5546 25654.96597
795.7407 25637.43536
795.9268 25508.98676
796.1129 25818.82395
796.2990 25953.88749
796.4851 26307.16210
796.6712 26029.96953
796.8572 25933.83788
797.0432 25642.69864
797.2292 25915.63143
797.4152 25852.34920
797.6012 25325.65260
797.7872 25116.41163
797.9731 25149.81400
798.1591 24953.72099
798.3450 24856.27864
798.5309 25153.97138
798.7168 25082.92734
798.9027 25019.23551
799.0885 25253.74841
799.2744 25113.13488
799.4602 25369.52009
799.6460 25277.19765
799.8318 25745.52715
800.0176 25243.13993
800.2034 25368.65994
800.3892 24803.07241
800.5749 24751.25880
800.7606 24680.33764
800.9463 24908.19465
801.1320 24759.69643
801.3177 24793.36504
801.5034 24750.29625
801.6890 25168.81915
801.8747 24705.01567
802.0603 24407.99876
802.2459 24369.57886
802.4315 24490.90053
802.6171 24081.71638
802.8026 24464.97325
802.9882 24387.47811
803.1737 24143.89271
803.3592 24391.51261
803.5447 24240.96643
803.7302 24562.33368
803.9157 24448.67142
804.1012 24517.09405
804.2866 23919.27150
804.4720 24061.03189
804.6574 24003.64781
804.8428 23855.29295
805.0282 23767.27125
805.2136 23614.04223
805.3989 23872.12725
805.5843 23719.67646
805.7696 23635.70974
805.9549 23551.39487
806.1402 23346.24984
806.3255 23217.47356
806.5107 23380.69667
806.6960 23636.91804
806.8812 23186.30348
807.0664 23287.06354
807.2516 22995.39183
807.4368 22892.41996
807.6220 22766.53132
807.8072 22857.52258
807.9923 22978.00458
808.1774 22867.33235
808.3625 23184.27599
808.5476 23205.47247
808.7327 23317.33252
808.9178 22867.78290
809.1028 22877.18308
809.2879 22773.74017
809.4729 22758.72856
809.6579 22560.13703
809.8429 22668.65890
810.0279 22653.58585
810.2128 22397.56927
810.3978 22543.48705
810.5827 22701.01680
810.7676 22826.31153
810.9525 22890.78159
811.1374 22628.45727
811.3223 22663.00650
811.5072 22396.58625
811.6920 22431.93419
811.8768 22457.18565
812.0616 22375.88129
812.2464 22421.20283
812.4312 22165.06338
812.6160 22345.91950
812.8007 22585.49089
812.9855 22561.26342
813.1702 22330.35494
813.3549 22342.02836
813.5396 21971.20266
813.7243 22024.69560
813.9089 22024.42937
814.0936 22075.38283
814.2782 22049.18931
814.4628 21943.08405
814.6474 21962.41687
814.8320 21925.57392
815.0166 21654.60717
815.2012 21790.81757
815.3857 21588.47826
815.5702 21580.12255
815.7547 21614.44650
815.9392 21686.98556
816.1237 21450.30181
816.3082 21299.34603
816.4926 21475.45087
816.6771 21576.64100
816.8615 21235.34701
817.0459 21436.90809
817.2303 21354.31351
817.4147 21452.80033
817.5990 21463.90032
817.7834 21146.50613
817.9677 21210.83282
818.1520 21410.83745
818.3363 21324.24933
818.5206 21102.24952
818.7049 20972.92029
818.8891 21026.55660
819.0734 21078.61596
819.2576 21239.38151
819.4418 20869.43643
819.6260 20766.30073
819.8102 20883.11686
819.9944 20855.94032
820.1785 20647.66190
820.3627 20816.00493
820.5468 20786.18650
820.7309 20548.17157
820.9150 20335.69482
821.0991 20181.99476
821.2831 20490.99229
821.4672 20357.93576
821.6512 20271.79819
821.8352 20286.27733
822.0192 20586.44811
822.2032 20322.58782
822.3872 20425.27297
822.5711 20198.87003
822.7551 20084.47049
822.9390 20168.51913
823.1229 20223.50709
823.3068 20212.52998
823.4907 19997.32942
823.6745 19976.70637
823.8584 19843.85464
824.0422 19941.01028
824.2261 20050.98620
824.4099 20062.47531
824.5937 20107.28486
824.7774 20075.82806
824.9612 20031.69434
825.1449 19719.11287
825.3287 19754.68608
825.5124 19674.63098
825.6961 19955.07982
825.8798 19859.66496
826.0634 19911.56049
826.2471 19797.75487
826.4307 20077.97843
826.6144 19910.55698
826.7980 20046.09156
826.9816 19805.82386
827.1652 19910.67986
827.3487 19874.00074
827.5323 19489.86324
827.7158 19356.72480
827.8993 19645.73415
828.0828 19437.68100
828.2663 19178.40816
828.4498 19381.11610
828.6333 19534.09937
828.8167 19221.70222
829.0001 19304.31727
829.1836 19442.02269
829.3670 19347.18126
829.5504 19632.42235
829.7337 19482.94111
829.9171 19433.01163
830.1004 19455.31401
830.2837 19373.47718
830.4671 19171.91610
830.6504 18993.12842
830.8336 19106.64733
831.0169 18940.57755
831.2002 19353.12037
831.3834 19215.12824
831.5666 18919.23771
831.7498 19014.75497
831.9330 19345.21521
832.1162 19253.30237
832.2993 19068.37080
832.4825 19156.22865
832.6656 18966.15668
832.8487 18559.57344
833.0318 18746.81922
833.2149 18658.42889
833.3980 18634.36526
833.5811 18774.58968
833.7641 18713.29397
833.9471 18569.34225
834.1301 18344.47528
834.3131 18135.31623
834.4961 18385.49610
834.6791 18461.78293
834.8620 18828.81989
835.0450 18666.55933
835.2279 18802.25774
835.4108 18766.27492
835.5937 18803.34316
835.7766 18493.79268
835.9594 18466.04271
836.1423 18547.12179
836.3251 18832.75199
836.5079 18790.93247
836.6907 18315.98804
836.8735 18220.98277
837.0563 18219.63111
837.2390 18312.48601
837.4218 18170.27506
837.6045 18485.88752
837.7872 18523.93878
837.9699 18388.28133
838.1526 18139.98560
838.3352 18080.02108
838.5179 18041.88790
838.7005 18117.66274
838.8831 18265.44417
839.0658 18334.07160
839.2483 18287.82847
839.4309 18299.44045
839.6135 18265.66944
839.7960 17815.93551
839.9786 17916.85941
840.1611 17778.64200
840.3436 17976.39386
840.5261 17745.52634
840.7085 17699.52896
840.8910 17561.84402
841.0734 17594.63200
841.2559 17553.36543
841.4383 17721.97470
841.6207 17930.94943
841.8030 17789.68055
841.9854 17750.58482
842.1678 17562.51985
842.3501 17648.51406
842.5324 17514.06491
842.7147 17713.22987
842.8970 17859.74156
843.0793 17757.75271
843.2615 17712.71788
843.4438 17760.08740
843.6260 17775.91820
843.8082 17679.29503
843.9904 17704.30073
844.1726 17503.78411
844.3548 17428.02975
844.5369 17315.73962
844.7191 17312.54479
844.9012 17211.06794
845.0833 17279.73633
845.2654 17583.28626
845.4475 17678.33249
845.6296 17323.60382
845.8116 17214.95908
845.9936 17221.49210
846.1757 17318.81157
846.3577 17292.39278
846.5397 17338.55399
846.7216 17201.17625
846.9036 17083.45900
847.0855 16878.10918
847.2675 17050.07711
847.4494 16990.25595
847.6313 17264.37656
847.8132 17304.29147
847.9950 17176.23199
848.1769 17144.14032
848.3587 17346.00860
848.5406 17056.01622
848.7224 17033.48857
848.9042 16898.87558
849.0860 17028.86016
849.2677 16864.61306
849.4495 16720.27223
849.6312 16652.07487
849.8129 16722.01300
849.9946 16866.27192
850.1763 16788.34671
850.3580 16617.75091
850.5397 16554.34580
850.7213 16264.33294
850.9029 16316.33087
851.0845 16428.98963
851.2661 16426.90070
851.4477 16414.98152
851.6293 16501.61060
851.8109 16497.22795
851.9924 16635.30200
852.1739 16679.10805
852.3554 16559.13804
852.5369 16410.90607
852.7184 16236.80824
852.8999 16181.36973
853.0813 16186.87876
853.2628 16238.85621
853.4442 16313.07460
853.6256 16251.96321
853.8070 16441.44128
853.9883 16444.22652
854.1697 16301.38070
854.3510 16122.14247
854.5324 16151.01883
854.7137 16161.87307
854.8950 16093.55283
855.0763 16075.26447
855.2575 16129.88379
855.4388 16149.95389
855.6200 16136.78545
855.8013 16134.88084
855.9825 16064.24640
856.1637 16065.14750
856.3449 15935.28580
856.5260 16025.80602
856.7072 16004.19995
856.8883 16158.26864
857.0694 16065.24990
857.2505 16048.41560
857.4316 16022.65215
857.6127 15931.35370
857.7938 16059.47463
857.9748 16019.86691
858.1558 15848.22665
858.3368 15771.22303
858.5178 15746.21733
858.6988 15873.72386
858.8798 15816.13498
859.0607 15942.41273
859.2417 15823.17999
859.4226 15788.69220
859.6035 15809.68388
859.7844 15887.09710
859.9653 15821.48018
860.1462 15641.19749
860.3270 15552.78668
860.5078 15484.42548
860.6887 15544.20569
860.8695 15429.17129
861.0503 15567.42966
861.2310 15317.76179
861.4118 15269.69596
861.5925 15226.66814
861.7733 15134.16139
861.9540 15027.35982
862.1347 14878.47249
862.3154 14819.38859
862.4960 14918.01877
862.6767 14953.85822
862.8573 14887.70883
863.0380 14863.37896
863.2186 14937.43351
863.3992 14879.00496
863.5797 14860.40940
863.7603 14883.40809
863.9409 14779.41224
864.1214 14871.46844
864.3019 14956.00859
864.4824 14931.94495
864.6629 14809.10779
864.8434 14610.70057
865.0238 14775.48014
865.2043 14842.94023
865.3847 14455.13687
865.5651 14389.00796
865.7455 14597.53214
865.9259 14567.44748
866.1063 14482.53869
866.2866 14438.24113
866.4670 14493.37245
866.6473 14363.73602
866.8276 14310.75507
867.0079 14284.70491
867.1882 14229.96270
867.3684 14109.07111
867.5487 14111.50819
867.7289 14091.76577
867.9091 14158.57051
868.0893 13959.61035
868.2695 13742.66902
868.4497 13662.85968
868.6299 13794.31879
868.8100 13804.31288
868.9901 13740.41625
869.1703 13804.12856
869.3504 13862.53663
869.5304 13831.87854
869.7105 13901.77571
869.8906 13841.60639
870.0706 13764.45941
870.2506 13919.67496
870.4306 13871.34290
870.6106 13820.88095
870.7906 13925.22495
870.9706 13804.49720
871.1505 13654.52445
871.3305 13657.20728
871.5104 13479.89415
871.6903 13425.74586
871.8702 13538.03598
872.0500 13503.34339
872.2299 13536.33617
872.4097 13378.27394
872.5896 13445.81595
872.7694 13492.59156
872.9492 13345.15829
873.1290 13073.26995
873.3087 13094.17972
873.4885 13425.33626
873.6682 13363.79480
873.8480 13237.94712
874.0277 13308.62252
874.2074 13053.32274
874.3870 13169.13537
874.5667 13229.28421
874.7463 13318.45277
874.9260 13146.95587
875.1056 13118.38671
875.2852 13045.68382
875.4648 12992.49807
875.6444 12953.40234
875.8239 13101.06089
876.0035 12968.49587
876.1830 12967.79956
876.3625 12864.99153
876.5420 12861.65334
876.7215 12864.43858
876.9010 12652.02326
877.0804 12730.89054
877.2599 12663.38949
877.4393 12836.38141
877.6187 12867.42862
877.7981 12869.76330
877.9775 12679.81420
878.1568 12912.56585
878.3362 12781.14769
878.5155 12704.38982
878.6948 12473.62470
878.8741 12489.68078
879.0534 12442.47510
879.2327 12395.59710
879.4119 12350.68514
879.5912 12216.21551
879.7704 12402.00724
879.9496 12494.16583
880.1288 12364.24269
880.3080 12118.87556
880.4872 12258.07599
880.6663 12264.79333
880.8455 12289.83999
881.0246 12356.74713
881.2037 12342.12463
881.3828 12234.44243
881.5619 12153.34287
881.7409 12116.76615
881.9200 11977.75003
882.0990 12106.01431
882.2780 12078.89921
882.4570 12011.21384
882.6360 12054.05735
882.8150 11840.00365
882.9940 11757.73675
883.1729 11763.94209
883.3518 12024.30036
883.5308 11964.99119
883.7096 11979.24505
883.8885 11833.45015
884.0674 11751.98196
884.2463 11727.93880
884.4251 11737.68713
884.6039 11606.30994
884.7827 11667.62612
884.9615 11581.36568
885.1403 11610.07820
885.3191 11645.20087
885.4978 11403.92967
885.6765 11500.32756
885.8553 11622.01786
886.0340 11583.43413
886.2127 11532.82882
886.3913 11420.55917
886.5700 11356.76495
886.7486 11291.72146
886.9273 11244.86393
887.1059 11144.24723
887.2845 11165.01363
887.4630 11251.94991
887.6416 11331.08342
887.8202 11313.06129
887.9987 11254.77610
888.1772 11294.95725
888.3557 11257.35654
888.5342 11151.61992
888.7127 11272.04048
888.8912 11202.04091
889.0696 11183.91638
889.2481 11003.98185
889.4265 10930.13210
889.6049 10882.88546
889.7833 10916.30831
889.9616 10818.23108
890.1400 10815.50729
890.3183 10521.35753
890.4967 10643.25263
890.6750 10867.17754
890.8533 10779.15584
891.0316 10726.29777
891.2098 10645.38252
891.3881 10584.12778
891.5663 10569.71008
891.7445 10591.13183
891.9227 10455.49486
892.1009 10482.34373
892.2791 10624.67756
892.4573 10668.60649
892.6354 10497.70350
892.8136 10521.91049
892.9917 10510.81050
893.1698 10361.39070
893.3479 10520.57931
893.5259 10681.11958
893.7040 10522.95495
893.8820 10435.19949
894.0601 10467.90555
894.2381 10513.16566
894.4161 10563.07466
894.5941 10542.06250
894.7720 10546.99810
894.9500 10527.23520
895.1279 10575.99734
895.3058 10459.44744
895.4838 10444.72254
895.6616 10373.33035
895.8395 10333.66120
896.0174 10251.47621
896.1952 10286.23024
896.3731 10349.08240
896.5509 10286.04593
896.7287 10282.19574
896.9065 10257.70204
897.0842 10273.75811
897.2620 10190.73346
897.4397 10099.72173
897.6175 10143.99881
897.7952 10187.25191
897.9729 10358.38018
898.1506 10297.35071
898.3282 10174.69786
898.5059 10120.38573
898.6835 10142.46284
898.8611 10228.60040
899.0388 10106.21379
899.2163 9929.59696
899.3939 9883.62007
899.5715 9983.23327
899.7490 9926.13590
899.9266 9963.44989
900.1041 10054.80977
900.2816 10026.54780
900.4591 9958.49380
900.6365 9988.12791
900.8140 9848.96843
900.9914 9896.07172
901.1689 9882.53464
901.3463 9830.04520
901.5237 9867.31823
901.7011 9798.71128
901.8784 9788.14376
902.0558 9669.91453
902.2331 9782.98288
902.4104 9878.95070
902.5878 9839.48634
902.7650 9792.77217
902.9423 9714.37593
903.1196 9796.68379
903.2968 9909.24015
903.4741 9876.63649
903.6513 9780.66868
903.8285 9650.80698
904.0057 9702.49771
904.1828 9548.12183
904.3600 9442.77431
904.5371 9472.40842
904.7143 9503.04603
904.8914 9537.63622
905.0685 9637.04463
905.2456 9627.97213
905.4226 9632.68245
905.5997 9684.27079
905.7767 9744.80874
905.9537 9542.20320
906.1307 9492.99051
906.3077 9406.99630
906.4847 9365.05390
906.6617 9343.32495
906.8386 9434.19332
907.0156 9338.61462
907.1925 9257.53554
907.3694 9256.42964
907.5463 9289.07426
907.7231 9340.66259
907.9000 9347.93288
908.0768 9254.97558
908.2537 9113.74765
908.4305 9160.48230
908.6073 9348.17864
908.7841 9319.77331
908.9608 9185.67232
909.1376 9149.34135
909.3143 9113.35854
909.4910 9028.63407
909.6677 9041.39292
909.8444 9090.66705
910.0211 9129.66037
910.1978 9055.01191
910.3744 9085.44473
910.5510 9154.48175
910.7277 9152.20851
910.9043 9028.59311
911.0808 9073.77130
911.2574 9070.06448
911.4340 8987.63374
911.6105 8841.57261
911.7870 8906.34986
911.9636 8917.01978
912.1401 8873.66428
912.3165 8951.22085
912.4930 8876.01944
912.6695 8774.39923
912.8459 8747.61180
913.0223 8784.04516
913.1987 8797.39792
913.3751 8742.16420
913.5515 8671.44784
913.7279 8723.15905
913.9042 8684.80060
914.0805 8649.37074
914.2568 8597.90528
914.4331 8605.95380
914.6094 8597.80289
914.7857 8562.55734
914.9620 8546.93134
915.1382 8486.29099
915.3144 8435.17369
915.4906 8551.49831
915.6668 8588.42319
915.8430 8458.64341
916.0192 8280.69540
916.1953 8419.19953
916.3715 8504.86606
916.5476 8438.04084
916.7237 8437.18070
916.8998 8425.28200
917.0759 8371.03131
917.2519 8305.18911
917.4280 8385.55140
917.6040 8364.58020
917.7800 8345.63649
917.9560 8326.11935
918.1320 8270.57844
918.3080 8286.36828
918.4839 8197.79363
918.6599 8131.66472
918.8358 8172.31690
919.0117 8212.25229
919.1876 8139.34460
919.3635 8143.25622
919.5394 8185.17814
919.7152 8134.81859
919.8911 8075.05886
920.0669 8056.36091
920.2427 7977.32979
920.4185 7912.65494
920.5942 7905.24129
920.7700 7871.34741
920.9458 7918.96268
921.1215 7952.11930
921.2972 7929.83740
921.4729 7940.63019
921.6486 7807.45079
921.8243 7660.36567
921.9999 7676.85182
922.1756 7695.30402
922.3512 7730.18093
922.5268 7659.60792
922.7024 7783.77627
922.8780 7812.09968
923.0535 7805.03418
923.2291 7767.84307
923.4046 7810.09267
923.5801 7923.22246
923.7557 7809.96979
923.9311 7773.02443
924.1066 7720.67835
924.2821 7817.17864
924.4575 7800.11906
924.6330 7752.99530
924.8084 7635.25757
924.9838 7564.09066
925.1592 7543.20138
925.3345 7551.29085
925.5099 7549.36576
925.6852 7548.71041
925.8606 7518.44144
926.0359 7433.10258
926.2112 7428.41273
926.3864 7397.59080
926.5617 7322.14363
926.7370 7329.51632
926.9122 7308.87279
927.0874 7243.23540
927.2626 7221.77268
927.4378 7228.65386
927.6130 7222.73523
927.7882 7168.17734
927.9633 7145.54729
928.1384 7059.26636
928.3135 6953.26350
928.4886 6904.97240
928.6637 6974.62381
928.8388 6968.68470
929.0139 7009.72600
929.1889 6970.95795
929.3639 6933.41868
929.5389 6949.47476
929.7139 6960.30851
929.8889 6968.13175
930.0639 7001.55460
930.2388 6915.49896
930.4138 6879.29087
930.5887 6896.47333
930.7636 6939.07108
930.9385 6907.92147
931.1134 6767.36938
931.2882 6755.57308
931.4631 6659.91246
931.6379 6640.53867
931.8127 6627.14496
931.9875 6654.17814
932.1623 6628.25086
932.3371 6629.52060
932.5118 6635.91026
932.6866 6622.33223
932.8613 6571.41973
933.0360 6536.91145
933.2107 6502.19838
933.3854 6443.93367
933.5600 6481.51390
933.7347 6358.79961
933.9093 6366.43853
934.0839 6372.11141
934.2586 6422.79863
934.4331 6405.73905
934.6077 6353.39297
934.7823 6304.34412
934.9568 6291.70815
935.1314 6279.39986
935.3059 6264.83880
935.4804 6208.45823
935.6549 6231.29308
935.8293 6233.42296
936.0038 6222.73257
936.1782 6229.40895
936.3526 6225.78404
936.5271 6143.33282
936.7015 6114.72270
936.8758 6121.54243
937.0502 6140.62950
937.2246 6118.59336
937.3989 6184.86563
937.5732 6113.30960
937.7475 6057.60485
937.9218 6011.13644
938.0961 6013.92167
938.2703 6011.17740
938.4446 5986.08978
938.6188 5989.24365
938.7930 5935.40255
938.9672 5893.09152
939.1414 5930.73318
939.3156 5864.56331
939.4897 5762.06248
939.6639 5755.01746
939.8380 5799.23311
940.0121 5791.00027
940.1862 5813.52793
940.3603 5830.34175
940.5344 5841.42127
940.7084 5863.66221
940.8824 5842.03566
941.0565 5826.49157
941.2305 5766.32225
941.4045 5698.02249
941.5784 5706.66492
941.7524 5717.82635
941.9263 5777.89327
942.1003 5780.73995
942.2742 5741.17320
942.4481 5631.25871
942.6220 5613.03179
942.7958 5616.61574
942.9697 5627.34709
943.1435 5648.78933
943.3174 5665.15260
943.4912 5636.17384
943.6650 5591.50764
943.8387 5560.89051
944.0125 5487.36843
944.1863 5498.20218
944.3600 5528.06157
944.5337 5474.52766
944.7074 5503.32210
944.8811 5471.78339
945.0548 5440.71570
945.2284 5371.06428
945.4021 5369.18015
945.5757 5401.57902
945.7493 5351.87482
945.9229 5234.32141
946.0965 5199.03491
946.2701 5200.03841
946.4436 5225.57658
946.6172 5230.06163
946.7907 5240.36292
946.9642 5201.86110
947.1377 5188.81554
947.3112 5203.25372
947.4847 5232.13008
947.6581 5246.11771
947.8315 5241.59170
948.0050 5157.23587
948.1784 5126.43442
948.3518 5150.55949
948.5251 5129.03534
948.6985 5183.42939
948.8718 5158.17793
949.0452 5080.92855
949.2185 5093.62596
949.3918 5050.06566
949.5651 5080.94903
949.7383 5023.54447
949.9116 5027.84520
950.0848 5042.11954
950.2581 5044.57710
950.4313 5079.45401
950.6045 5088.85419
950.7776 5076.68925
950.9508 5012.13728
951.1239 4980.43472
951.2971 4918.01264
951.4702 4935.62517
951.6433 4927.02370
951.8164 4890.79513
951.9895 4931.83643
952.1625 4867.69404
952.3356 4894.70675
952.5086 4840.29222
952.6816 4876.84846
952.8546 4841.50052
953.0276 4832.03891
953.2006 4837.85514
953.3735 4813.97582
953.5465 4818.58375
953.7194 4802.99871
953.8923 4770.94800
954.0652 4793.25038
954.2381 4712.62185
954.4109 4678.56413
954.5838 4675.84033
954.7566 4652.43205
954.9294 4615.13854
955.1022 4640.63575
955.2750 4659.78426
955.4478 4634.12321
955.6206 4645.71471
955.7933 4676.53664
955.9660 4621.67156
956.1388 4627.05772
956.3115 4598.89815
956.4841 4554.37530
956.6568 4514.74711
956.8295 4511.49084
957.0021 4489.04510
957.1747 4521.09581
957.3473 4470.73626
957.5199 4445.09569
957.6925 4476.83921
957.8651 4499.26447
958.0376 4510.42590
958.2102 4451.85399
958.3827 4497.54417
958.5552 4555.76792
958.7277 4515.83253
958.9001 4468.27870
959.0726 4402.10883
959.2450 4372.57712
959.4175 4380.31844
959.5899 4322.38140
959.7623 4317.99875
959.9347 4269.74861
960.1070 4236.38720
960.2794 4250.12907
960.4517 4224.07890
960.6241 4249.14604
960.7964 4267.68016
960.9687 4283.26520
961.1409 4264.87444
961.3132 4226.10639
961.4855 4176.44315
961.6577 4165.26124
961.8299 4194.83391
962.0021 4198.70457
962.1743 4147.60775
962.3465 4111.50206
962.5186 4130.13858
962.6908 4113.44763
962.8629 4104.98952
963.0350 4106.01351
963.2071 4088.13474
963.3792 4070.46077
963.5513 4027.90398
963.7233 4090.14175
963.8954 4068.61760
964.0674 4048.81374
964.2394 4038.84013
964.4114 4000.11304
964.5834 4001.97669
964.7553 4022.23110
964.9273 4018.60620
965.0992 3978.91657
965.2711 3998.16747
965.4430 3990.44663
965.6149 3995.23888
965.7868 3962.73761
965.9587 3935.25387
966.1305 3953.78799
966.3023 3953.15312
966.4741 3969.47543
966.6459 3921.32768
966.8177 3934.65996
966.9895 3912.15278
967.1613 3901.79006
967.3330 3901.62623
967.5047 3858.31169
967.6764 3861.81371
967.8481 3843.30008
968.0198 3810.65545
968.1915 3802.29974
968.3631 3806.98959
968.5347 3811.47464
968.7064 3795.23425
968.8780 3762.22099
969.0496 3789.31562
969.2211 3757.18299
969.3927 3769.96231
969.5642 3741.78226
969.7358 3727.22121
969.9073 3692.18046
970.0788 3740.16437
970.2503 3744.60846
970.4217 3742.58097
970.5932 3709.83395
970.7646 3709.05572
970.9360 3706.20905
971.1074 3719.50036
971.2788 3744.83374
971.4502 3743.80975
971.6216 3691.64799
971.7929 3662.09580
971.9643 3655.25558
972.1356 3672.08989
972.3069 3663.59082
972.4782 3649.86943
972.6494 3614.29621
972.8207 3616.85617
972.9919 3604.56836
973.1632 3565.43167
973.3344 3541.92099
973.5056 3498.60645
973.6768 3511.46770
973.8479 3580.64808
974.0191 3573.09108
974.1902 3571.57558
974.3614 3534.97838
974.5325 3535.30605
974.7036 3536.69867
974.8746 3521.91234
975.0457 3492.01200
975.2167 3468.95187
975.3878 3460.26848
975.5588 3448.69746
975.7298 3449.49616
975.9008 3425.24821
976.0718 3427.29618
976.2427 3404.80949
976.4137 3391.21097
976.5846 3388.38478
976.7555 3365.18129
976.9264 3360.04089
977.0973 3364.44402
977.2682 3384.32980
977.4390 3384.98515
977.6098 3405.30100
977.7807 3418.94047
977.9515 3402.16761
978.1223 3413.96391
978.2930 3374.58147
978.4638 3354.30658
978.6346 3306.69130
978.8053 3296.36954
978.9760 3279.92435
979.1467 3246.74726
979.3174 3273.10462
979.4881 3270.36034
979.6587 3273.65757
979.8294 3262.88525
980.0000 3244.04394
980.1706 3229.09377
980.3412 3214.30743
980.5118 3193.52055
980.6824 3194.72885
980.8529 3211.35836
981.0235 3226.47237
981.1940 3218.30097
981.3645 3186.14786
981.5350 3184.79620
981.7055 3170.84954
981.8759 3181.92905
982.0464 3171.56633
982.2168 3151.37335
982.3872 3166.42592
982.5576 3158.04973
982.7280 3164.25508
982.8984 3175.06835
983.0687 3150.73848
983.2391 3141.82982
983.4094 3118.66729
983.5797 3111.66324
983.7500 3104.61823
983.9203 3080.30884
984.0906 3102.75458
984.2608 3066.71033
984.4311 3087.37433
984.6013 3048.58580
984.7715 3091.08115
984.9417 3087.92728
985.1119 3069.45460
985.2820 3041.13120
985.4522 3028.65907
985.6223 3024.52217
985.7924 3034.10666
985.9625 3040.88544
986.1326 3061.52896
986.3027 3038.12068
986.4727 3038.93987
986.6428 3008.48657
986.8128 2990.09581
986.9828 2973.60967
987.1528 2976.19011
987.3228 2985.07829
987.4928 2990.68972
987.6627 3000.02846
987.8327 2965.37683
988.0026 2967.83439
988.1725 2943.21781
988.3424 2925.44144
988.5123 2928.69771
988.6821 2918.17115
988.8520 2934.65730
989.0218 2920.11672
989.1916 2937.97501
989.3614 2901.11157
989.5312 2892.96066
989.7010 2876.04443
989.8707 2877.76473
990.0405 2872.50145
990.2102 2874.48798
990.3799 2857.53080
990.5496 2848.00774
990.7193 2843.93228
990.8890 2829.26883
991.0586 2825.21385
991.2283 2836.68248
991.3979 2832.15646
991.5675 2839.91827
991.7371 2819.97105
991.9067 2799.20465
992.0762 2778.52016
992.2458 2791.87292
992.4153 2809.44449
992.5848 2818.57843
992.7543 2811.36958
992.9238 2797.79155
993.0933 2782.30890
993.2627 2783.51721
993.4322 2759.78125
993.6016 2769.09951
993.7710 2730.41338
993.9404 2754.76372
994.1098 2733.05526
994.2792 2736.80304
994.4485 2723.18405
994.6179 2712.57557
994.7872 2738.23662
994.9565 2724.55619
995.1258 2732.82998
995.2951 2726.56320
995.4643 2730.76153
995.6336 2729.69659
995.8028 2710.99863
995.9720 2684.04736
996.1412 2685.74718
996.3104 2681.99940
996.4796 2688.28666
996.6487 2686.46397
996.8179 2697.01101
996.9870 2695.96654
997.1561 2666.45531
997.3252 2656.27691
997.4943 2659.65606
997.6634 2642.26880
997.8324 2657.07562
998.0014 2645.44315
998.1705 2630.94353
998.3395 2607.35093
998.5085 2580.07199
998.6774 2587.21940
998.8464 2566.71923
999.0153 2588.20243
999.1843 2589.61552
999.3532 2603.31644
999.5221 2584.78232
999.6910 2585.72438
999.8599 2599.05666
1000.0287 2613.24908
1000.1976 2615.39945
1000.3664 2613.88395
1000.5352 2601.35039
1000.7040 2587.93619
1000.8728 2576.16037
1001.0415 2556.33603
1001.2103 2521.07001
1001.3790 2537.24896
1001.5478 2519.73883
1001.7165 2520.25082
1001.8851 2515.11042
1002.0538 2511.69031
1002.2225 2532.64103
1002.3911 2521.33625
1002.5598 2507.14382
1002.7284 2516.76928
1002.8970 2492.21413
1003.0656 2505.91504
1003.2341 2487.25805
1003.4027 2490.08424
1003.5712 2442.18225
1003.7398 2441.19923
1003.9083 2457.89017
1004.0768 2438.04536
1004.2453 2417.07416
1004.4137 2436.91898
1004.5822 2426.55625
1004.7506 2441.07635
1004.9190 2413.75645
1005.0874 2421.27249
1005.2558 2399.29779
1005.4242 2414.10460
1005.5926 2417.50423
1005.7609 2410.04963
1005.9292 2392.70333
1006.0976 2414.00220
1006.2659 2408.92324
1006.4342 2414.08412
1006.6024 2405.60553
1006.7707 2408.71845
1006.9389 2408.16549
1007.1071 2417.91383
1007.2754 2406.44520
1007.4436 2398.49908
1007.6117 2368.45538
1007.7799 2377.95795
1007.9481 2372.03933
1008.1162 2380.31312
1008.2843 2374.55833
1008.4524 2365.54726
1008.6205 2357.17107
1008.7886 2357.41683
1008.9566 2348.09857
1009.1247 2333.00504
1009.2927 2321.29066
1009.4607 2332.86168
1009.6287 2320.10284
1009.7967 2313.36502
1009.9647 2309.59676
1010.1327 2307.03680
1010.3006 2288.37980
1010.4685 2285.67648
1010.6364 2297.67758
1010.8043 2281.31431
1010.9722 2260.05639
1011.1401 2260.67078
1011.3079 2250.14423
1011.4758 2282.37925
1011.6436 2269.23129
1011.8114 2281.25287
1011.9792 2263.08739
1012.1470 2283.79235
1012.3147 2287.92925
1012.4825 2293.58164
1012.6502 2283.44420
1012.8179 2284.44770
1012.9856 2262.51396
1013.1533 2266.50750
1013.3210 2240.92837
1013.4886 2246.33500
1013.6563 2215.88171
1013.8239 2228.90679
1013.9915 2238.83944
1014.1591 2215.79979
1014.3267 2216.04555
1014.4942 2230.52468
1014.6618 2214.40717
1014.8293 2219.54757
1014.9969 2215.24684
1015.1644 2232.65457
1015.3319 2224.91325
1015.4993 2210.63891
1015.6668 2202.16032
1015.8342 2198.10534
1016.0017 2195.07435
1016.1691 2206.05146
1016.3365 2196.46696
1016.5039 2178.50628
1016.6712 2190.83505
1016.8386 2189.01236
1017.0059 2175.63912
1017.1733 2175.74152
1017.3406 2169.57713
1017.5079 2171.42031
1017.6752 2146.84468
1017.8424 2152.06700
1018.0097 2142.07291
1018.1769 2141.97052
1018.3441 2141.39708
1018.5113 2139.55391
1018.6785 2145.92310
1018.8457 2142.76922
1019.0129 2148.85169
1019.1800 2140.72125
1019.3471 2155.58951
1019.5142 2142.95354
1019.6813 2138.18177
1019.8484 2148.66737
1020.0155 2140.43454
1020.1826 2130.68621
1020.3496 2119.62718
1020.5166 2098.12350
1020.6836 2101.95321
1020.8506 2101.89177
1021.0176 2091.11945
1021.1846 2097.09952
1021.3515 2089.05100
1021.5185 2094.39620
1021.6854 2094.15045
1021.8523 2097.71391
1022.0192 2091.93864
1022.1861 2097.95967
1022.3529 2077.04991
1022.5198 2084.60691
1022.6866 2075.43201
1022.8534 2084.15636
1023.0202 2066.58479
1023.1870 2069.80010
1023.3538 2062.07925
1023.5205 2065.60176
1023.6873 2056.59070
1023.8540 2060.97335
1024.0207 2040.06359
1024.1874 2060.70712
1024.3541 2049.91432
1024.5207 2056.50878
1024.6874 2042.82835
1024.8540 2049.19753
1025.0206 2039.85879
1025.1872 2034.63647
1025.3538 2029.76231
1025.5204 2034.63647
1025.6870 2020.71029
1025.8535 2017.78169
1026.0201 2019.07191
1026.1866 2025.29774
1026.3531 2002.77008
1026.5196 2008.95495
1026.6860 2020.75125
1026.8525 2009.89701
1027.0189 1997.93687
1027.1853 2014.85310
1027.3518 1991.44481
1027.5181 2007.02985
1027.6845 1999.47285
1027.8509 1995.11068
1028.0172 1980.75442
1028.1836 1979.91475
1028.3499 1970.14594
1028.5162 1983.10958
1028.6825 1965.00554
1028.8488 1963.57196
1029.0150 1947.06533
1029.1813 1952.71772
1029.3475 1940.51183
1029.5137 1957.28469
1029.6799 1962.91661
1029.8461 1948.35555
1030.0123 1935.88342
1030.1784 1943.85002
1030.3446 1944.89448
1030.5107 1946.53286
1030.6768 1940.77807
1030.8429 1924.90631
1031.0090 1929.61664
1031.1750 1930.51774
1031.3411 1911.08252
1031.5071 1941.61773
1031.6732 1934.12217
1031.8392 1925.15206
1032.0051 1916.75539
1032.1711 1921.75244
1032.3371 1910.71388
1032.5030 1911.24636
1032.6690 1914.87126
1032.8349 1916.42772
1033.0008 1900.92459
1033.1667 1907.37570
1033.3325 1887.91999
1033.4984 1897.48401
1033.6642 1903.75079
1033.8300 1921.75244
1033.9959 1904.03751
1034.1616 1908.87071
1034.3274 1896.46002
1034.4932 1899.01998
1034.6589 1887.48992
1034.8247 1904.89765
1034.9904 1871.59768
1035.1561 1893.98198
1035.3218 1884.82756
1035.4875 1888.82110
1035.6531 1875.71410
1035.8188 1891.27866
1035.9844 1870.69657
1036.1500 1873.37941
1036.3156 1864.63459
1036.4812 1864.12260
1036.6468 1853.96467
1036.8123 1856.21744
1036.9779 1853.06356
1037.1434 1867.95230
1037.3089 1858.12205
1037.4744 1872.43735
1037.6399 1868.25949
1037.8053 1852.94069
1037.9708 1853.94419
1038.1362 1850.42168
1038.3016 1848.66043
1038.4670 1852.01910
1038.6324 1855.25489
1038.7978 1828.18074
1038.9632 1851.11799
1039.1285 1850.81080
1039.2938 1832.48148
1039.4592 1842.68036
1039.6245 1820.45990
1039.7897 1834.98000
1039.9550 1833.54642
1040.1203 1837.08941
1040.2855 1818.59625
1040.4507 1826.27613
1040.6159 1827.58683
1040.7811 1814.00880
1040.9463 1815.81101
1041.1115 1816.32300
1041.2766 1801.37283
1041.4418 1794.28686
1041.6069 1788.32727
1041.7720 1796.96970
1041.9371 1782.24480
1042.1021 1794.55310
1042.2672 1787.11897
1042.4323 1805.89884
1042.5973 1786.01307
1042.7623 1794.38926
1042.9273 1795.55660
1043.0923 1794.10254
1043.2572 1784.39517
1043.4222 1771.28817
1043.5871 1762.56383
1043.7521 1789.31030
1043.9170 1798.66951
1044.0819 1774.89260
1044.2467 1772.88559
1044.4116 1780.48355
1044.5765 1764.22268
1044.7413 1767.37655
1044.9061 1762.15423
1045.0709 1764.07932
1045.2357 1756.68615
1045.4005 1746.01624
1045.5652 1744.86937
1045.7300 1747.42934
1045.8947 1739.07362
1046.0594 1736.92326
1046.2241 1742.26845
1046.3888 1742.26845
1046.5535 1742.63709
1046.7181 1746.95830
1046.8828 1732.86828
1047.0474 1733.07308
1047.2120 1720.96958
1047.3766 1731.00463
1047.5412 1725.72087
1047.7057 1726.10998
1047.8703 1721.07198
1048.0348 1722.83323
1048.1993 1720.72382
1048.3639 1720.90814
1048.5283 1707.98546
1048.6928 1719.16737
1048.8573 1709.33712
1049.0217 1709.37808
1049.1861 1693.83399
1049.3506 1709.80815
1049.5150 1700.24414
1049.6793 1700.12126
1049.8437 1687.99728
1050.0081 1706.14229
1050.1724 1687.60817
1050.3367 1706.83860
1050.5010 1686.99378
1050.6653 1689.04175
1050.8296 1675.60707
1050.9939 1683.98326
1051.1581 1670.99914
1051.3224 1683.88087
1051.4866 1680.82939
1051.6508 1673.62054
1051.8150 1663.62645
1051.9791 1667.98863
1052.1433 1665.34675
1052.3074 1672.16648
1052.4716 1662.72535
1052.6357 1659.89915
1052.7998 1659.01853
1052.9639 1664.99859
1053.1279 1651.37960
1053.2920 1650.60137
1053.4560 1641.93847
1053.6201 1651.99399
1053.7841 1646.56687
1053.9481 1640.68920
1054.1120 1642.65525
1054.2760 1644.23219
1054.4399 1643.53588
1054.6039 1648.79916
1054.7678 1629.20010
1054.9317 1641.11928
1055.0956 1637.28958
1055.2595 1639.54234
1055.4233 1622.38036
1055.5872 1622.81044
1055.7510 1624.71505
1055.9148 1629.03626
1056.0786 1616.58461
1056.2424 1633.35748
1056.4062 1612.48867
1056.5699 1622.72852
1056.7336 1625.82095
1056.8974 1609.86727
1057.0611 1603.33425
1057.2248 1600.95861
1057.3885 1609.08905
1057.5521 1605.15695
1057.7158 1596.28924
1057.8794 1616.62557
1058.0430 1605.32078
1058.2066 1606.03757
1058.3702 1591.80419
1058.5338 1609.53960
1058.6973 1586.21324
1058.8609 1594.63039
1059.0244 1581.99442
1059.1879 1595.30622
1059.3514 1575.95291
1059.5149 1585.76268
1059.6784 1580.39700
1059.8418 1585.94700
1060.0053 1577.52985
1060.1687 1582.81361
1060.3321 1556.35385
1060.4955 1576.79258
1060.6589 1563.72654
1060.8222 1566.28650
1060.9856 1567.67912
1061.1489 1564.03373
1061.3122 1556.14905
1061.4755 1572.86048
1061.6388 1562.35440
1061.8021 1563.86990
1061.9654 1557.50071
1062.1286 1556.06714
1062.2918 1549.00164
1062.4550 1554.98171
1062.6182 1545.37674
1062.7814 1558.50422
1062.9446 1551.80736
1063.1077 1548.63301
1063.2709 1534.97306
1063.4340 1541.81327
1063.5971 1532.20830
1063.7602 1533.37564
1063.9233 1533.12989
1064.0863 1535.03450
1064.2494 1530.11937
1064.4124 1537.59446
1064.5754 1527.06790
1064.7384 1536.98007
1064.9014 1521.43598
1065.0644 1528.48100
1065.2274 1510.78655
1065.3903 1522.23469
1065.5532 1510.58175
1065.7162 1519.61329
1065.8790 1510.31551
1066.0419 1509.61920
1066.2048 1509.53729
1066.3677 1512.03581
1066.5305 1507.69411
1066.6933 1504.56072
1066.8561 1483.91720
1067.0189 1502.47179
1067.1817 1485.59653
1067.3445 1486.29284
1067.5072 1481.02956
1067.6699 1488.52513
1067.8327 1486.19044
1067.9954 1488.48417
1068.1580 1475.52053
1068.3207 1478.96111
1068.4834 1478.65392
1068.6460 1478.59248
1068.8086 1475.25429
1068.9713 1473.86167
1069.1339 1471.77274
1069.2964 1473.65687
1069.4590 1462.67976
1069.6216 1477.83473
1069.7841 1463.78566
1069.9466 1465.09636
1070.1091 1461.86057
1070.2716 1455.55283
1070.4341 1456.12626
1070.5966 1467.02145
1070.7590 1438.32941
1070.9214 1464.03142
1071.0839 1450.04379
1071.2463 1454.09877
1071.4086 1448.01630
1071.5710 1443.06022
1071.7334 1439.49675
1071.8957 1448.95837
1072.0580 1434.70451
1072.2204 1443.22406
1072.3827 1437.30543
1072.5449 1439.80395
1072.7072 1421.72039
1072.8695 1422.70341
1073.0317 1423.78883
1073.1939 1425.75488
1073.3561 1423.66596
1073.5183 1431.07960
1073.6805 1411.82870
1073.8427 1426.96319
1074.0048 1406.27870
1074.1669 1423.35876
1074.3291 1406.95453
1074.4912 1412.99604
1074.6532 1410.72279
1074.8153 1413.20084
1074.9774 1406.38110
1075.1394 1405.31616
1075.3014 1406.01247
1075.4635 1399.88904
1075.6255 1394.27760
1075.7874 1415.02353
1075.9494 1384.81599
1076.1114 1400.27815
1076.2733 1386.18813
1076.4352 1398.63978
1076.5971 1385.38942
1076.7590 1395.95694
1076.9209 1379.34791
1077.0828 1388.03130
1077.2446 1367.53113
1077.4064 1389.40344
1077.5683 1367.51065
1077.7301 1369.74294
1077.8918 1365.44220
1078.0536 1378.79496
1078.2154 1372.67153
1078.3771 1372.44626
1078.5388 1367.65401
1078.7006 1365.76988
1078.8623 1362.26785
1079.0239 1356.92265
1079.1856 1366.81434
1079.3473 1363.68095
1079.5089 1365.52412
1079.6705 1357.35273
1079.8321 1346.17082
1079.9937 1354.34221
1080.1553 1339.18725
1080.3169 1350.22580
1080.4784 1343.26270
1080.6399 1351.35218
1080.8014 1339.82212
1080.9629 1353.62543
1081.1244 1342.62783
1081.2859 1340.23171
1081.4474 1331.26161
1081.6088 1330.87249
1081.7702 1340.49795
1081.9316 1334.47692
1082.0930 1327.24759
1082.2544 1324.31899
1082.4158 1321.34944
1082.5771 1329.39795
1082.7385 1327.02231
1082.8998 1328.88596
1083.0611 1314.93930
1083.2224 1325.42490
1083.3837 1313.21900
1083.5449 1319.69058
1083.7062 1311.80590
1083.8674 1310.53616
1084.0286 1309.34834
1084.1898 1314.85738
1084.3510 1300.78783
1084.5122 1302.97916
1084.6734 1302.75388
1084.8345 1304.86329
1084.9956 1297.44964
1085.1567 1305.74392
1085.3178 1293.27179
1085.4789 1296.93765
1085.6400 1287.61939
1085.8010 1292.22732
1085.9621 1287.86515
1086.1231 1288.50002
1086.2841 1272.44394
1086.4451 1292.78027
1086.6061 1280.12383
1086.7670 1292.24780
1086.9280 1278.99744
1087.0889 1279.50944
1087.2498 1279.69375
1087.4107 1290.44559
1087.5716 1282.80667
1087.7325 1266.64819
1087.8933 1266.07476
1088.0542 1296.17990
1088.2150 1263.08473
1088.3758 1277.66626
1088.5366 1263.43288
1088.6974 1271.44044
1088.8582 1265.74709
1089.0189 1266.34100
1089.1796 1259.35742
1089.3404 1271.44044
1089.5011 1258.29248
1089.6618 1272.91498
1089.8224 1261.05724
1089.9831 1268.86000
1090.1438 1261.48731
1090.3044 1274.98342
1090.4650 1262.65465
1090.6256 1262.42938
1090.7862 1257.06370
1090.9468 1263.41240
1091.1073 1257.45281
1091.2679 1262.96185
1091.4284 1263.53528
1091.5889 1259.80798
1091.7494 1251.41130
1091.9099 1259.93085
1092.0703 1248.95374
1092.2308 1259.76702
1092.3912 1262.79801
1092.5516 1267.73362
1092.7121 1254.68805
1092.8724 1259.88990
1093.0328 1248.78990
1093.1932 1261.73307
1093.3535 1249.54765
1093.5139 1260.77052
1093.6742 1252.80392
1093.8345 1260.68860
1093.9948 1244.40725
1094.1550 1258.74303
1094.3153 1248.21647
1094.4755 1258.70207
1094.6358 1260.91388
1094.7960 1259.19359
1094.9562 1250.08012
1095.1163 1267.07827
1095.2765 1244.57109
1095.4367 1259.00927
1095.5968 1248.87182
1095.7569 1257.67809
1095.9170 1247.70448
1096.0771 1259.05023
1096.2372 1255.99875
1096.3973 1261.05724
1096.5573 1252.84488
1096.7173 1255.87588
1096.8773 1250.40780
1097.0374 1254.68805
1097.1973 1253.58215
1097.3573 1259.84894
1097.5173 1248.93326
1097.6772 1253.50023
1097.8371 1249.38382
1097.9970 1253.76647
1098.1569 1249.01518
1098.3168 1254.40134
1098.4767 1246.49618
1098.6365 1256.79746
1098.7964 1257.47329
1098.9562 1250.53068
1099.1160 1232.81575
1099.2758 1265.48085
1099.4356 1244.87828
1099.5953 1258.43584
1099.7551 1252.53769
1099.9148 1262.75705
1100.0745 1248.66703
1100.2342 1257.69857
1100.3939 1251.12459
1100.5536 1261.42587
1100.7132 1251.45226
1100.8729 1250.87883
1101.0325 1255.32293
1101.1921 1257.00226
1101.3517 1246.18898
1101.5113 1255.58916
1101.6709 1249.38382
1101.8304 1247.88880
1101.9899 1244.57109
1102.1495 1260.23805
1102.3090 1246.72146
1102.4685 1248.33935
1102.6279 1245.00116
1102.7874 1253.88935
1102.9468 1244.50965
1103.1063 1251.45226
1103.2657 1242.40024
1103.4251 1252.53769
1103.5845 1247.29489
1103.7438 1248.13455
1103.9032 1246.18898
1104.0625 1256.08067
1104.2219 1244.75541
1104.3812 1246.33234
1104.5405 1251.84138
1104.6997 1255.32292
1104.8590 1254.76997
1105.0183 1258.98879
1105.1775 1246.70098
1105.3367 1260.66812
1105.4959 1245.57459
1105.6551 1259.70558
1105.8143 1242.35928
1105.9735 1260.03325
1106.1326 1243.26039
1106.2917 1260.58620
1106.4508 1244.77589
1106.6099 1257.20706
1106.7690 1240.65947
1106.9281 1253.23400
1107.0872 1238.42718
1107.2462 1258.64063
1107.4052 1258.16960
1107.5642 1255.73252
1107.7232 1253.19304
1107.8822 1259.78750
1108.0412 1240.94618
1108.2001 1255.99875
1108.3591 1243.77238
1108.5180 1258.96831
1108.6769 1242.11353
1108.8358 1253.76647
1108.9947 1240.22940
1109.1535 1258.57920
1109.3124 1255.38436
1109.4712 1254.11462
1109.6300 1245.65651
1109.7888 1254.60614
1109.9476 1244.91924
1110.1064 1256.26499
1110.2651 1251.98474
1110.4239 1252.55817
1110.5826 1236.13346
1110.7413 1257.82145
1110.9000 1252.31241
1111.0587 1256.26499
1111.2173 1249.38382
1111.3760 1248.48271
1111.5346 1255.97827
1111.6932 1251.08363
1111.8518 1250.28492
1112.0104 1253.64359
1112.1690 1245.82035
1112.3276 1262.18362
1112.4861 1245.49267
1112.6446 1249.32238
1112.8032 1255.71204
1112.9617 1250.05965
1113.1201 1250.87883
1113.2786 1254.19654
1113.4371 1250.48972
1113.5955 1244.20245
1113.7539 1241.94969
1113.9123 1256.65410
1114.0707 1251.55466
1114.2291 1262.26554
1114.3875 1248.05264
1114.5458 1257.41185
1114.7042 1252.59913
1114.8625 1249.97773
1115.0208 1250.46924
1115.1791 1267.81553
1115.3374 1248.93326
1115.4956 1255.26149
1115.6539 1240.51611
1115.8121 1260.54525
1115.9703 1252.68105
1116.1285 1255.91684
1116.2867 1240.10652
1116.4449 1249.17902
1116.6030 1246.49618
1116.7612 1253.74599
1116.9193 1238.14047
1117.0774 1251.86186
1117.2355 1244.40725
1117.3936 1253.64359
1117.5516 1248.31887
1117.7097 1256.20355
1117.8677 1245.71795
1118.0257 1255.05669
1118.1837 1250.94027
1118.3417 1258.88639
1118.4997 1257.24802
1118.6577 1258.76351
1118.8156 1247.11057
1118.9735 1244.77589
1119.1315 1243.83382
1119.2894 1258.23104
1119.4472 1245.98419
1119.6051 1254.62662
1119.7630 1242.62552
1119.9208 1244.57109
1120.0786 1241.99065
1120.2364 1263.63768
1120.3942 1250.59212
1120.5520 1255.52772
1120.7098 1251.92330
1120.8675 1248.38031
1121.0253 1244.96020
1121.1830 1256.10115
1121.3407 1249.01518
1121.4984 1258.66111
1121.6560 1252.31241
