# Averages = 100
# wavelength [µm]	intensity
446.8250 14.33578
447.0374 36746.70328
447.2498 1230.89066
447.4621 1224.25524
447.6745 1230.99306
447.8868 1240.04508
448.0992 1242.05209
448.3115 1233.08198
448.5238 1248.87182
448.7360 1242.54360
448.9483 1240.29083
449.1606 1239.43069
449.3728 1273.48841
449.5850 1235.06851
449.7972 1236.72737
450.0094 1241.70393
450.2216 1253.82791
450.4337 1249.79341
450.6459 1716.64837
450.8580 2085.48754
451.0701 2123.68215
451.2822 2134.82310
451.4943 2127.16370
451.7064 2112.66408
451.9184 2094.25284
452.1305 2197.49095
452.3425 2296.46928
452.5545 2198.26918
452.7665 2219.48613
452.9785 2306.50432
453.1905 2325.32516
453.4024 2296.73551
453.6143 2402.79982
453.8263 2396.86071
454.0382 2571.06093
454.2501 2378.67474
454.4619 2372.34652
454.6738 2491.31302
454.8856 2612.16366
455.0975 2416.86936
455.3093 2416.95128
455.5211 2489.01930
455.7329 2465.44718
455.9446 2513.14437
456.1564 2518.01854
456.3681 2611.13968
456.5798 2719.94826
456.7916 2641.51105
457.0033 2618.00037
457.2149 2586.91221
457.4266 2627.83062
457.6382 2679.88999
457.8499 2642.65792
458.0615 2756.87313
458.2731 2666.10716
458.4847 2771.84378
458.6963 2870.76067
458.9078 2895.07006
459.1194 3071.68689
459.3309 3074.61548
459.5424 2925.60528
459.7539 2825.97160
459.9654 2842.92878
460.1769 2883.90863
460.3883 2872.39905
460.5998 2744.31908
460.8112 2722.67205
461.0226 2774.46518
461.2340 2864.94444
461.4454 2841.22897
461.6567 2822.44909
461.8681 2824.18987
462.0794 2787.71554
462.2907 2917.96635
462.5020 3155.77649
462.7133 3256.88470
462.9246 3036.31847
463.1359 2888.08649
463.3471 2762.87368
463.5583 2839.11956
463.7696 3222.41739
463.9808 3053.95148
464.1919 2989.19471
464.4031 2970.74251
464.6143 3008.34322
464.8254 2928.47243
465.0365 2878.91159
465.2476 3142.79236
465.4587 3309.66086
465.6698 2894.18944
465.8809 2967.46576
466.0919 2944.13940
466.3030 3005.84469
466.5140 3044.01883
466.7250 2959.13053
466.9360 3093.02672
467.1469 3022.84283
467.3579 2831.11200
467.5688 2813.86810
467.7798 3057.90406
467.9907 3175.72370
468.2016 3056.79816
468.4125 3030.76847
468.6233 2887.49258
468.8342 2908.27946
469.0450 3084.60957
469.2559 3174.14677
469.4667 3131.67189
469.6775 2890.23686
469.8882 3049.34355
470.0990 3002.64986
470.3098 3298.68375
470.5205 3120.05991
470.7312 3197.67793
470.9419 3413.92295
471.1526 3301.79666
471.3633 3031.60814
471.5739 3059.80867
471.7846 3035.00777
471.9952 2969.20653
472.2058 3077.09353
472.4164 3066.21881
472.6270 3045.90296
472.8376 3174.04437
473.0481 3356.23167
473.2587 3436.02053
473.4692 3344.41489
473.6797 3225.87846
473.8902 2992.10282
474.1007 2965.88882
474.3111 3001.01149
474.5216 2928.65675
474.7320 3038.53028
474.9424 3205.39877
475.1528 3270.27842
475.3632 3141.97318
475.5736 3089.77045
475.7840 3091.87986
475.9943 3127.33020
476.2046 3152.86837
476.4149 3228.92993
476.6252 3250.06497
476.8355 3360.12281
477.0458 3423.26168
477.2561 3415.78660
477.4663 3274.98875
477.6765 3285.12619
477.8867 3304.70477
478.0969 3293.17471
478.3071 3273.41181
478.5173 3364.93553
478.7274 3343.98481
478.9375 3394.93828
479.1477 3378.45213
479.3578 3501.59649
479.5679 3450.02864
479.7779 3497.80775
479.9880 3488.98100
480.1980 3518.57415
480.4081 3527.07322
480.6181 3425.39157
480.8281 3522.05570
481.0381 3457.50372
481.2480 3461.57918
481.4580 3542.47395
481.6679 3514.49869
481.8778 3459.61313
482.0877 3469.44338
482.2976 3382.19991
482.5075 3470.89744
482.7174 3548.53593
482.9272 3611.47001
483.1371 3478.47492
483.3469 3519.68005
483.5567 3639.62958
483.7665 3541.94147
483.9762 3596.90895
484.1860 3734.12286
484.3957 3714.89243
484.6055 3575.99919
484.8152 3655.80854
485.0249 3770.16711
485.2346 3746.16492
485.4442 3744.23983
485.6539 3798.36764
485.8635 3761.66804
486.0732 3640.89932
486.2828 3682.63693
486.4924 3668.93602
486.7019 3781.36950
486.9115 3748.58152
487.1210 3751.79683
487.3306 3881.37181
487.5401 3844.75413
487.7496 3895.97383
487.9591 3949.54869
488.1686 3901.64670
488.3780 3837.66816
488.5875 3946.31290
488.7969 4032.69623
489.0063 4006.44127
489.2157 4070.29693
489.4251 3994.13297
489.6345 3966.42396
489.8438 4086.78308
490.0531 3904.69818
490.2625 3984.38464
490.4718 4067.92129
490.6811 4142.77455
490.8903 4152.80959
491.0996 4182.79185
491.3089 4186.82635
491.5181 4233.04901
491.7273 4230.28425
491.9365 4222.76820
492.1457 4297.49858
492.3549 4312.96075
492.5640 4222.13333
492.7732 4305.58806
492.9823 4353.67437
493.1914 4471.82168
493.4005 4446.01728
493.6096 4414.17136
493.8187 4380.23652
494.0277 4472.10840
494.2368 4467.09088
494.4458 4514.31704
494.6548 4560.21202
494.8638 4622.73650
495.0728 4593.53247
495.2817 4603.95663
495.4907 4628.51177
495.6996 4674.50915
495.9085 4680.57114
496.1174 4746.76149
496.3263 4740.92478
496.5352 4763.14524
496.7440 4857.86379
496.9529 4871.74902
497.1617 4830.78965
497.3705 4856.40974
497.5793 4974.51609
497.7881 4860.73095
497.9969 4958.09138
498.2056 5028.62343
498.4144 5037.20442
498.6231 5099.56507
498.8318 5107.81838
499.0405 5140.05341
499.2492 5105.81137
499.4578 5165.18198
499.6665 5165.93973
499.8751 5279.39720
500.0837 5290.98870
500.2923 5301.80198
500.5009 5332.13240
500.7095 5455.05148
500.9180 5397.36020
501.1266 5478.66456
501.3351 5498.01787
501.5436 5574.36614
501.7521 5555.50435
501.9606 5633.06093
502.1691 5698.10441
502.3775 5654.95371
502.5860 5713.68945
502.7944 5745.65825
503.0028 5794.54326
503.2112 5813.48697
503.4196 5856.43288
503.6279 5912.15811
503.8363 5864.46091
504.0446 6007.38865
504.2529 5982.38295
504.4612 6037.20708
504.6695 6120.14981
504.8778 6128.93560
505.0860 6130.16438
505.2943 6162.44037
505.5025 6252.03900
505.7107 6260.06704
505.9189 6342.19058
506.1271 6387.88077
506.3353 6372.82820
506.5434 6350.81253
506.7516 6463.16410
506.9597 6518.76645
507.1678 6597.69517
507.3759 6558.61992
507.5840 6616.96655
507.7920 6677.38163
508.0001 6685.26631
508.2081 6808.10347
508.4161 6785.08431
508.6241 6985.64189
508.8321 6945.62458
509.0401 6899.91391
509.2480 7038.60236
509.4560 7002.61955
509.6639 7106.96355
509.8718 7138.54323
510.0797 7249.52266
510.2876 7255.97376
510.4955 7362.79581
510.7033 7387.71959
510.9112 7441.68357
511.1190 7546.82628
511.3268 7503.20455
511.5346 7566.54822
511.7424 7610.49763
511.9501 7736.01764
512.1579 7777.46852
512.3656 7789.51058
512.5733 7773.59786
512.7810 7894.48946
512.9887 7999.71409
513.1964 7999.52977
513.4040 8038.48214
513.6117 8091.60645
513.8193 8202.70875
514.0269 8197.95747
514.2345 8343.01509
514.4421 8288.90776
514.6497 8296.21901
514.8572 8494.60574
515.0647 8528.04907
515.2723 8595.20197
515.4798 8645.04952
515.6873 8716.70795
515.8947 8783.61509
516.1022 8766.76031
516.3097 8837.84530
516.5171 8951.34373
516.7245 9005.96306
516.9319 9100.39490
517.1393 9118.17127
517.3467 9119.27717
517.5540 9144.59006
517.7614 9383.46514
517.9687 9390.32583
518.1760 9428.35661
518.3833 9562.19137
518.5906 9591.02677
518.7978 9743.66188
519.0051 9720.23312
519.2123 9875.71491
519.4196 9703.39882
519.6268 9888.51471
519.8340 9926.34069
520.0411 9977.68327
520.2483 10203.32847
520.4554 10164.90857
520.6626 10425.63548
520.8697 10361.98461
521.0768 10587.07685
521.2839 10521.02986
521.4909 10549.31231
521.6980 10715.56641
521.9050 10864.94525
522.1121 10808.95379
522.3191 11024.44106
522.5261 11017.04789
522.7331 11061.30450
522.9400 11250.63921
523.1470 11300.20005
523.3539 11412.67449
523.5608 11402.63945
523.7677 11437.31156
523.9746 11555.31552
524.1815 11848.56416
524.3884 11744.79359
524.5952 11748.64377
524.8020 12037.36640
525.0089 11971.85188
525.2157 12088.19699
525.4225 12155.18604
525.6292 12208.94522
525.8360 12297.04884
526.0427 12392.42274
526.2494 12561.19585
526.4562 12549.25619
526.6629 12627.77531
526.8695 12658.04429
527.0762 12889.77195
527.2829 12988.62741
527.4895 13116.37970
527.6961 13219.37205
527.9027 13341.06235
528.1093 13395.78407
528.3159 13459.49638
528.5224 13406.12632
528.7290 13768.78062
528.9355 13599.67984
529.1420 13988.15903
529.3485 13886.39547
529.5550 14102.88624
529.7615 14033.19387
529.9680 14190.58027
530.1744 14224.24887
530.3808 14408.44318
530.5872 14354.70448
530.7936 14516.78073
531.0000 14589.05355
531.2064 14720.24642
531.4127 14839.88876
531.6191 14956.02907
531.8254 15072.68137
532.0317 15253.98804
532.2380 15174.28110
532.4443 15358.59828
532.6505 15172.60176
532.8568 15465.60465
533.0630 15784.67818
533.2692 15686.96959
533.4754 15861.66133
533.6816 16040.36708
533.8878 15966.70164
534.0939 16278.27961
534.3001 16295.17535
534.5062 16369.06606
534.7123 16308.58955
534.9184 16405.51991
535.1245 16571.65113
535.3306 16612.91770
535.5366 16920.82980
535.7426 16952.16373
535.9487 17042.27435
536.1547 17022.69577
536.3607 17297.24646
536.5666 17208.22126
536.7726 17307.26103
536.9785 17547.09865
537.1845 17734.73355
537.3904 17629.77515
537.5963 17659.57309
537.8022 17882.88360
538.0080 18018.41818
538.2139 18145.78135
538.4197 18250.00248
538.6256 18222.98978
538.8314 18267.16446
539.0372 18447.22187
539.2430 18805.24777
539.4487 18629.79829
539.6545 18918.70524
539.8602 18840.63667
540.0659 19039.20772
540.2716 19447.47029
540.4773 19488.08151
540.6830 19600.51500
540.8887 19748.13258
541.0943 19499.40678
541.2999 19604.44710
541.5056 19657.20277
541.7112 19915.04204
541.9167 19797.61151
542.1223 19856.96164
542.3279 20250.68363
542.5334 20309.89041
542.7389 20522.10093
542.9444 20584.93261
543.1499 20686.06131
543.3554 20643.46356
543.5609 20988.75109
543.7663 21004.86861
543.9718 20864.41891
544.1772 21028.68648
544.3826 21034.95327
544.5880 21648.19703
544.7934 21495.56192
544.9987 21568.69488
545.2041 21955.10563
545.4094 21894.34239
545.6147 21870.70883
545.8200 22204.36390
546.0253 22175.65138
546.2306 22482.90813
546.4358 22253.04412
546.6411 22623.29639
546.8463 22459.64321
547.0515 22769.95143
547.2567 22915.00906
547.4619 23019.43499
547.6670 23093.03898
547.8722 23232.28038
548.0773 23503.98439
548.2824 23490.11964
548.4876 23617.70810
548.6926 23739.17312
548.8977 23831.78227
549.1028 23962.50412
549.3078 24146.00212
549.5129 24131.31818
549.7179 24256.18283
549.9229 24397.20596
550.1279 24307.11582
550.3328 24706.46972
550.5378 24388.48162
550.7427 24722.52580
550.9476 24910.26309
551.1526 24384.46760
551.3575 24988.37262
551.5623 25070.78288
551.7672 24943.58355
551.9720 25049.38161
552.1769 25175.24977
552.3817 25355.81918
552.5865 25268.32995
552.7913 25515.49930
552.9961 25328.92935
553.2008 25592.03189
553.4056 25865.47668
553.6103 25794.00257
553.8150 26047.95069
554.0197 26080.92299
554.2244 26031.25975
554.4291 26083.64679
554.6337 26504.05381
554.8384 26292.99015
555.0430 26519.24974
555.2476 26302.20601
555.4522 26315.84549
555.6568 26657.18044
555.8613 26809.87699
556.0659 26943.93702
556.2704 26628.59079
556.4750 26989.58625
556.6795 27156.51618
556.8839 26877.09132
557.0884 27360.53482
557.2929 27306.48893
557.4973 27101.03670
557.7018 27222.80893
557.9062 27418.20562
558.1106 27409.21504
558.3150 27230.42737
558.5193 27623.96505
558.7237 27682.08640
558.9280 27406.79844
559.1323 27676.00393
559.3367 27542.70165
559.5410 27773.36437
559.7452 27522.79539
559.9495 27871.70782
560.1537 27850.26559
560.3580 27766.07360
560.5622 28040.46045
560.7664 28187.34077
560.9706 28141.73250
561.1748 28299.24178
561.3789 28316.44472
561.5831 28299.89713
561.7872 28217.89646
561.9913 28513.97130
562.1954 28435.02211
562.3995 28589.45943
562.6036 28566.89082
562.8076 28368.83176
563.0117 28679.36526
563.2157 28546.14489
563.4197 28801.42420
563.6237 28999.48326
563.8277 28673.56951
564.0316 28488.63793
564.2356 28845.45553
564.4395 28836.77214
564.6434 29038.06699
564.8473 29238.84984
565.0512 29150.25472
565.2551 29176.57111
565.4590 29228.67144
565.6628 29421.65153
565.8666 29647.01002
566.0705 29446.26812
566.2743 29433.65263
566.4780 29475.36975
566.6818 29415.71242
566.8856 29931.73911
567.0893 29532.91768
567.2930 29705.09041
567.4967 29452.45298
567.7004 29702.53045
567.9041 29862.72256
568.1078 29848.77590
568.3114 30094.18399
568.5151 29995.57430
568.7187 29620.61170
568.9223 29857.29545
569.1259 30012.47004
569.3295 30352.69909
569.5330 30308.68824
569.7366 30342.90980
569.9401 30460.31985
570.1436 30475.61817
570.3471 30565.89263
570.5506 30536.77052
570.7541 30544.83952
570.9575 30504.45357
571.1609 30190.09037
571.3644 30746.40060
571.5678 30682.34014
571.7712 31093.98186
571.9746 30988.40907
572.1779 30733.58032
572.3813 30646.35733
572.5846 30855.12726
572.7879 30756.70188
572.9912 31368.22535
573.1945 31183.92864
573.3978 30805.19778
573.6010 31154.64269
573.8043 31733.50106
574.0075 30930.75875
574.2107 31121.11744
574.4139 31083.35290
574.6171 31246.76033
574.8203 31017.63358
575.0234 31420.20280
575.2266 30905.89641
575.4297 31078.35585
575.6328 31197.71147
575.8359 31510.82542
576.0390 30848.59424
576.2420 30974.36000
576.4451 30731.73714
576.6481 31105.43000
576.8512 31529.76913
577.0542 30901.26800
577.2571 31365.99307
577.4601 31362.55248
577.6631 31251.77785
577.8660 31114.68682
578.0689 31006.65647
578.2719 31205.71903
578.4748 30989.14634
578.6776 30996.86718
578.8805 31066.98963
579.0834 30597.28800
579.2862 31028.77453
579.4890 31415.04192
579.6918 31224.56034
579.8946 30937.98808
580.0974 31351.37057
580.3002 31038.70718
580.5029 30848.77856
580.7057 31274.87894
580.9084 30773.63858
581.1111 31346.59880
581.3138 31127.01559
581.5164 30865.65382
581.7191 30747.09691
581.9217 30864.83463
582.1244 30905.67113
582.3270 30907.47334
582.5296 30842.36842
582.7322 31121.62943
582.9347 30967.15115
583.1373 30673.98442
583.3398 30949.27238
583.5424 30760.44967
583.7449 30686.02648
583.9474 30532.59266
584.1498 30438.83665
584.3523 30882.63148
584.5548 30443.50602
584.7572 30620.79868
584.9596 30816.42065
585.1620 31352.27167
585.3644 30463.61708
585.5668 30578.91772
585.7691 30962.17459
585.9715 30736.28363
586.1738 31002.86773
586.3761 31010.89576
586.5784 31209.87641
586.7807 31096.99237
586.9830 31005.14097
587.1852 31001.33175
587.3875 30720.63715
587.5897 31249.79132
587.7919 30971.73860
587.9941 30617.21473
588.1963 30757.64395
588.3984 31169.22423
588.6006 30634.74534
588.8027 31187.10300
589.0048 30829.50717
589.2069 30999.28378
589.4090 31002.08950
589.6111 31190.52310
589.8131 31078.68353
590.0152 31292.92154
590.2172 31127.46615
590.4192 31532.53388
590.6212 31259.43725
590.8232 30984.84560
591.0252 31377.35929
591.2271 31491.96362
591.4291 31478.52895
591.6310 31301.99404
591.8329 31324.03019
592.0348 31634.85040
592.2367 31648.32604
592.4385 31977.53701
592.6404 32072.37845
592.8422 32133.69463
593.0440 32232.16097
593.2458 32485.26943
593.4476 32605.85383
593.6494 32633.64476
593.8512 32834.69385
594.0529 33155.36480
594.2546 33050.57024
594.4563 32944.40354
594.6580 32696.64028
594.8597 32677.57369
595.0614 32777.55553
595.2630 33047.00677
595.4647 32963.28581
595.6663 32671.98274
595.8679 33005.90404
596.0695 33488.93795
596.2711 33310.80563
596.4727 33386.45760
596.6742 33678.53890
596.8757 33787.65467
597.0773 33760.51909
597.2788 33412.24152
597.4802 33756.95562
597.6817 34172.03793
597.8832 33848.68414
598.0846 34187.74585
598.2860 34158.58277
598.4875 33892.12156
598.6889 34445.66703
598.8902 34515.07269
599.0916 34532.82858
599.2930 34176.91209
599.4943 34691.85336
599.6956 34711.10426
599.8969 34535.96198
600.0982 34201.20100
600.2995 34386.86985
600.5008 35131.24505
600.7020 34484.14837
600.9032 35039.51653
601.1045 34839.88054
601.3057 34520.25405
601.5068 35180.68302
601.7080 35173.20793
601.9092 35026.22521
602.1103 35579.19726
602.3115 35466.21082
602.5126 35735.58015
602.7137 35600.94668
602.9147 35595.47861
603.1158 35744.85745
603.3169 35933.29105
603.5179 35799.78397
603.7189 35590.82972
603.9199 35845.47415
604.1209 35884.01693
604.3219 35922.04770
604.5229 35978.91980
604.7238 36135.79420
604.9247 36171.89989
605.1257 36326.19386
605.3266 36529.72099
605.5275 36156.54013
605.7283 36332.48112
605.9292 36485.34151
606.1300 35948.44602
606.3309 36181.15671
606.5317 36448.96958
606.7325 36584.50416
606.9332 36611.45543
607.1340 36893.76792
607.3348 36741.82912
607.5355 36170.65063
607.7362 37156.19463
607.9369 36506.10791
608.1376 36761.63297
608.3383 36504.05994
608.5390 37336.51828
608.7396 36967.33095
608.9402 37514.58916
609.1409 37461.01430
609.3415 37115.66533
609.5421 37026.96780
609.7426 37375.90072
609.9432 36932.14685
610.1437 36824.62849
610.3443 37705.35745
610.5448 37517.16960
610.7453 37803.00460
610.9457 37418.53943
611.1462 37630.60659
611.3467 37525.27956
611.5471 37889.67464
611.7475 37427.57097
611.9479 38164.04101
612.1483 37611.68336
612.3487 38133.36244
612.5491 38028.60884
612.7494 38621.80299
612.9497 37919.14491
613.1501 38348.56300
613.3504 38073.93039
613.5506 38727.27338
613.7509 38416.67844
613.9512 38327.12077
614.1514 38489.07413
614.3516 38848.32881
614.5519 38713.96158
614.7521 38845.44118
614.9522 38487.88631
615.1524 38573.22517
615.3526 39014.89011
615.5527 39638.96763
615.7528 39200.64088
615.9529 39166.60364
616.1530 39544.06476
616.3531 39587.99369
616.5532 39479.84046
616.7532 38991.48183
616.9532 39397.45067
617.1533 39163.96176
617.3533 39559.54740
617.5532 39280.02015
617.7532 39535.79096
617.9532 38691.98688
618.1531 39672.20616
618.3530 39127.38503
618.5530 39474.72053
618.7528 39637.22685
618.9527 39700.28381
619.1526 39279.16000
619.3524 39306.09079
619.5523 39553.11678
619.7521 39735.38600
619.9519 39764.36475
620.1517 39637.43165
620.3515 39975.83801
620.5512 40304.63939
620.7510 40073.19844
620.9507 39754.84170
621.1504 39853.65619
621.3501 39935.49302
621.5498 40181.67935
621.7495 40270.23352
621.9492 39861.84807
622.1488 39710.70797
622.3484 39782.01825
622.5480 39766.59704
622.7476 40464.36047
622.9472 39742.08285
623.1468 39999.65588
623.3463 41075.98634
623.5459 40804.22089
623.7454 40484.04145
623.9449 40533.47942
624.1444 40530.38699
624.3439 40875.85883
624.5433 40703.48130
624.7428 40506.13904
624.9422 40570.21998
625.1416 40761.45930
625.3410 40731.45656
625.5404 40615.60297
625.7398 40616.99558
625.9391 40796.93012
626.1385 40305.37666
626.3378 40353.23769
626.5371 41072.11568
626.7364 40446.85034
626.9357 40875.92027
627.1350 40843.31661
627.3342 40497.61949
627.5335 40329.58365
627.7327 40593.07531
627.9319 40559.24287
628.1311 41558.59018
628.3303 40772.21114
628.5294 40996.77091
628.7286 41164.00804
628.9277 41597.46062
629.1268 41255.71608
629.3259 41942.66624
629.5250 41849.81133
629.7241 41742.45681
629.9231 41030.17328
630.1222 41784.54257
630.3212 41630.67868
630.5202 41244.94376
630.7192 41766.64332
630.9182 41197.63568
631.1171 41523.01696
631.3161 41295.07804
631.5150 41107.79130
631.7140 41375.97280
631.9129 41585.82816
632.1118 42025.07650
632.3106 41746.83946
632.5095 41544.45919
632.7083 41473.00556
632.9072 41590.47705
633.1060 41637.10930
633.3048 41740.87987
633.5036 41216.27220
633.7023 41579.00842
633.9011 42015.73776
634.0998 41815.48738
634.2986 41913.54412
634.4973 41758.61528
634.6960 41851.85930
634.8947 41744.97581
635.0933 42036.42225
635.2920 41687.67365
635.4906 41362.88628
635.6892 42151.84576
635.8878 42233.41636
636.0864 42267.92463
636.2850 41904.38970
636.4836 41951.88210
636.6821 42050.14364
636.8806 42203.88465
637.0792 42131.32512
637.2777 42141.42160
637.4761 42202.06196
637.6746 41988.47930
637.8731 42335.50760
638.0715 41773.97505
638.2699 42514.80727
638.4683 42175.80700
638.6667 41380.49881
638.8651 42199.68631
639.0635 42420.00679
639.2618 42419.65864
639.4602 42366.43193
639.6585 42241.32152
639.8568 42337.84229
640.0551 42472.16856
640.2534 42358.97732
640.4516 42093.97017
640.6499 42332.29229
640.8481 43049.83910
641.0463 42797.28360
641.2445 43022.25296
641.4427 42882.86821
641.6409 42657.40733
641.8390 42889.85178
642.0372 43216.35944
642.2353 43048.09833
642.4334 42511.38716
642.6315 42737.52387
642.8296 42744.30264
643.0277 42521.93420
643.2257 43202.06462
643.4237 43250.27380
643.6218 43160.36797
643.8198 42884.69090
644.0178 43039.90645
644.2157 42968.06371
644.4137 42879.59146
644.6116 43544.95603
644.8096 43867.14247
645.0075 42809.69429
645.2054 43449.52068
645.4033 43346.75361
645.6011 43266.94427
645.7990 43244.27325
645.9968 43432.95262
646.1947 43243.41311
646.3925 43496.62396
646.5903 43298.07339
646.7881 43481.34612
646.9858 43359.22574
647.1836 43206.71351
647.3813 42947.35875
647.5790 43370.26429
647.7767 43969.49995
647.9744 43139.43773
648.1721 43145.17205
648.3698 43914.65535
648.5674 43081.33686
648.7650 43532.93445
648.9627 43176.66981
649.1603 43951.37543
649.3578 43560.50011
649.5554 43693.90479
649.7530 44215.85011
649.9505 43089.28298
650.1480 43746.43519
650.3455 44101.10242
650.5430 43481.96051
650.7405 43610.38863
650.9380 43355.98995
651.1354 43717.35404
651.3329 43371.10396
651.5303 43863.98860
651.7277 43862.51406
651.9251 44068.41684
652.1225 43824.31944
652.3198 43689.46070
652.5172 43884.57068
652.7145 44208.82558
652.9118 43993.93222
653.1091 44015.96836
653.3064 44232.97113
653.5037 44011.23755
653.7009 43707.62618
653.8982 43986.74385
654.0954 44466.11189
654.2926 44547.39577
654.4898 44441.41339
654.6870 44384.50034
654.8841 45004.56383
655.0813 44488.88530
655.2784 44586.94205
655.4755 44922.09213
655.6726 45100.87980
655.8697 44447.72113
656.0668 44844.18740
656.2639 44498.61315
656.4609 44592.90164
656.6579 44637.03536
656.8550 44732.42975
657.0520 44570.29206
657.2490 43990.94218
657.4459 44565.90941
657.6429 44790.61254
657.8398 44596.75182
658.0367 45009.64280
658.2337 44790.98117
658.4305 44954.55244
658.6274 45070.16027
658.8243 44972.55408
659.0211 45325.56246
659.2180 45315.40453
659.4148 45476.23152
659.6116 45686.08688
659.8084 45568.51299
660.0052 46025.21002
660.2019 45711.62505
660.3987 45431.64724
660.5954 45482.84646
660.7921 45586.67847
660.9888 45173.82845
661.1855 45581.94766
661.3822 45765.09751
661.5788 45214.09152
661.7755 45483.15365
661.9721 45099.61006
662.1687 45602.71407
662.3653 45537.03571
662.5619 45739.96893
662.7584 45271.61896
662.9550 45381.71776
663.1515 45681.86806
663.3480 45384.54396
663.5445 46090.06919
663.7410 45494.90899
663.9375 45719.79644
664.1340 45703.28981
664.3304 46089.02473
664.5268 45701.99959
664.7233 46118.41308
664.9197 45975.09622
665.1160 45922.40199
665.3124 45803.45596
665.5088 45837.00169
665.7051 45812.18031
665.9014 45872.47251
666.0977 45675.56032
666.2940 45604.55724
666.4903 45948.12448
666.6866 45977.32851
666.8828 45657.62011
667.0791 45716.72449
667.2753 45921.54184
667.4715 45780.72351
667.6677 46288.12825
667.8639 46478.71222
668.0600 45738.18720
668.2562 46035.87994
668.4523 45883.63394
668.6484 46037.76407
668.8445 45584.01611
669.0406 46669.72627
669.2367 46558.62396
669.4327 46636.11910
669.6287 46455.50873
669.8248 46209.97776
670.0208 46378.95566
670.2168 46349.38299
670.4128 46360.68778
670.6087 46332.71253
670.8047 46231.60431
671.0006 46930.22789
671.1965 45879.10793
671.3924 46565.40274
671.5883 46077.59706
671.7842 46272.15409
671.9801 45640.45813
672.1759 46079.74743
672.3717 45930.94202
672.5675 46729.15832
672.7633 46520.59318
672.9591 46663.09085
673.1549 47053.76137
673.3506 46463.78253
673.5464 46159.08574
673.7421 46686.64249
673.9378 46528.92841
674.1335 46258.06407
674.3292 46534.66273
674.5249 46002.43661
674.7205 45214.09152
674.9161 45686.82414
675.1118 45646.90923
675.3074 45676.89150
675.5030 45676.54334
675.6985 46152.57320
675.8941 45999.30322
676.0896 46111.18375
676.2852 46248.93013
676.4807 45996.64086
676.6762 46249.70835
676.8717 46691.37330
677.0671 46500.37973
677.2626 46997.15551
677.4580 46545.33264
677.6534 46637.18404
677.8489 46170.32909
678.0442 46198.77537
678.2396 45504.86212
678.4350 45825.92218
678.6303 45962.05066
678.8257 45824.48860
679.0210 46239.81667
679.2163 45845.62364
679.4116 46066.55851
679.6069 45830.59155
679.8021 45387.94358
679.9974 45393.41166
680.1926 45813.96204
680.3878 45668.35147
680.5830 45615.96442
680.7782 45730.67115
680.9734 45512.78776
681.1685 45510.88315
681.3636 45530.87132
681.5588 45568.24675
681.7539 45462.48965
681.9490 45500.23371
682.1441 45402.91424
682.3391 45037.76141
682.5342 45726.61618
682.7292 45893.34131
682.9242 45936.24626
683.1192 45639.49559
683.3142 46164.98389
683.5092 46115.97600
683.7041 46337.38190
683.8991 46280.18213
684.0940 46042.88399
684.2889 45499.74220
684.4838 45903.00773
684.6787 45625.38508
684.8736 44771.66883
685.0684 45587.57958
685.2633 45201.84466
685.4581 45345.34583
685.6529 45665.54575
685.8477 46053.90206
686.0425 45946.09699
686.2372 45535.99125
686.4320 45388.27126
686.6267 45523.62151
686.8214 45241.59574
687.0161 45136.98549
687.2108 45274.50660
687.4055 45135.98199
687.6002 45523.68295
687.7948 45394.08749
687.9894 45795.40745
688.1841 45393.30926
688.3787 45538.10065
688.5732 45150.66593
688.7678 45457.30829
688.9624 45219.70295
689.1569 45132.31613
689.3514 44893.93256
689.5459 44499.26850
689.7404 44692.55580
689.9349 44744.88140
690.1294 44864.99476
690.3238 44852.56359
690.5182 44956.45705
690.7127 45092.50361
690.9071 44987.75001
691.1015 44574.85903
691.2958 44810.55975
691.4902 45128.19971
691.6845 45964.16007
691.8789 45139.13586
692.0732 45084.31174
692.2675 44903.08698
692.4618 45072.51544
692.6560 44876.66819
692.8503 45477.43982
693.0445 45429.16920
693.2387 44726.30632
693.4329 45217.22491
693.6271 45076.71377
693.8213 45185.44043
694.0155 45407.19449
694.2096 45002.88450
694.4038 44665.68645
694.5979 44800.29943
694.7920 44775.74429
694.9861 44725.40521
695.1801 44632.26360
695.3742 44504.30651
695.5682 44509.77458
695.7623 44455.15526
695.9563 44193.48629
696.1503 44531.17586
696.3443 43843.52939
696.5382 44329.73765
696.7322 44388.20716
696.9261 44800.83190
697.1201 44232.45914
697.3140 44527.24376
697.5079 44738.67605
697.7017 43936.13854
697.8956 44074.88842
698.0894 43785.12132
698.2833 44369.57064
698.4771 44367.29740
698.6709 44724.91370
698.8647 44020.55581
699.0585 44668.20545
699.2522 43771.54329
699.4460 44136.24556
699.6397 44139.33800
699.8334 43899.66421
700.0271 43831.58973
700.2208 43997.59808
700.4144 44262.76907
700.6081 44081.87199
700.8017 43865.40170
700.9954 44392.91749
701.1890 44155.53743
701.3826 43650.01682
701.5761 43720.71270
701.7697 43855.98104
701.9632 43511.12358
702.1568 43741.68390
702.3503 43583.68312
702.5438 43339.11469
702.7373 42847.82746
702.9308 43632.85485
703.1242 43751.14552
703.3177 43389.82239
703.5111 43716.39149
703.7045 43722.74019
703.8979 43842.03437
704.0913 43754.27891
704.2847 43958.54332
704.4780 44187.01471
704.6713 43155.98532
704.8647 43459.39189
705.0580 43371.34972
705.2513 42776.16904
705.4445 43371.06300
705.6378 43347.36800
705.8311 42555.95096
706.0243 42627.77322
706.2175 43220.74209
706.4107 43030.34244
706.6039 43015.06459
706.7971 42981.23215
706.9902 43226.98840
707.1834 42972.48732
707.3765 42586.81385
707.5696 42595.21052
707.7627 42785.71257
707.9558 42844.93983
708.1489 42360.53378
708.3419 42034.51763
708.5349 42135.44153
708.7280 42102.36684
708.9210 42730.45838
709.1140 42597.19705
709.3069 42301.28604
709.4999 42164.48173
709.6929 42504.01447
709.8858 42092.98714
710.0787 42216.23390
710.2716 41554.16656
710.4645 42158.11255
710.6574 42136.67032
710.8502 42454.51507
711.0431 41968.38872
711.2359 41632.41945
711.4287 41639.15727
711.6215 41893.02347
711.8143 41854.80838
712.0071 41823.78165
712.1998 41599.40619
712.3925 41894.27273
712.5853 42140.02898
712.7780 42153.95517
712.9707 41815.85601
713.1633 41857.40930
713.3560 41782.02357
713.5487 41631.57978
713.7413 41847.92720
713.9339 41666.86628
714.1265 41432.94729
714.3191 41576.85806
714.5117 41063.63709
714.7042 41404.15285
714.8968 41508.16919
715.0893 42099.78640
715.2818 41951.80018
715.4743 42012.31765
715.6668 41572.22965
715.8592 41958.27176
716.0517 41662.87275
716.2441 41809.52779
716.4366 41450.58030
716.6290 41570.61175
716.8214 41676.69653
717.0137 41742.14962
717.2061 41603.95268
717.3984 41493.40333
717.5908 41124.64608
717.7831 40964.65876
717.9754 41489.96274
718.1677 40432.94463
718.3600 41075.98634
718.5522 40771.08475
718.7445 40711.34550
718.9367 40484.47153
719.1289 40698.23850
719.3211 40504.19347
719.5133 40613.20684
719.7054 40451.80643
719.8976 40795.45558
720.0897 40756.21650
720.2818 40683.45217
720.4740 40730.82169
720.6660 40731.86615
720.8581 40682.34627
721.0502 40361.59340
721.2422 40149.75151
721.4343 40423.13486
721.6263 40562.35578
721.8183 40436.81529
722.0103 40861.56401
722.2022 40652.07729
722.3942 40895.96989
722.5861 40542.24472
722.7781 41009.22256
722.9700 40642.34944
723.1619 40455.84092
723.3538 40282.64421
723.5456 40445.96971
723.7375 40085.46578
723.9293 40237.03594
724.1211 39938.87217
724.3129 39918.18769
724.5047 39496.61332
724.6965 39539.78450
724.8883 39833.36082
725.0800 39612.61027
725.2718 39951.11902
725.4635 39620.02392
725.6552 39446.88864
725.8469 39636.87870
726.0385 39998.48854
726.2302 39692.78825
726.4218 38982.63460
726.6135 39131.17378
726.8051 39067.72770
726.9967 39464.25541
727.1882 39619.04089
727.3798 39878.19086
727.5714 39630.61192
727.7629 39903.93383
727.9544 39926.05189
728.1459 39273.13897
728.3374 39081.98157
728.5289 39855.66320
728.7204 39402.14052
728.9118 39913.23160
729.1032 40114.93605
729.2946 39751.66735
729.4860 39095.66200
729.6774 39438.24621
729.8688 39472.16057
730.0602 39143.54351
730.2515 39329.35571
730.4428 39662.99030
730.6341 39366.23963
730.8254 39178.35898
731.0167 39661.22905
731.2080 39595.91932
731.3992 39434.68275
731.5905 39377.13482
731.7817 39347.19352
731.9729 38800.09915
732.1641 39054.19063
732.3553 38537.46764
732.5464 38932.90992
732.7376 38836.38915
732.9287 38948.06489
733.1198 38920.64259
733.3109 38987.42685
733.5020 38740.48278
733.6931 39306.27510
733.8841 39123.73965
734.0752 39460.67147
734.2662 38958.46857
734.4572 38871.08175
734.6482 38411.12844
734.8392 38408.28177
735.0302 38321.71413
735.2211 38101.04550
735.4120 37982.61146
735.6030 38487.80439
735.7939 38365.29490
735.9848 38371.52073
736.1756 37974.97254
736.3665 38195.96885
736.5574 37792.94908
736.7482 37841.44498
736.9390 37644.65566
737.1298 37946.93585
737.3206 38075.20013
737.5114 38343.54547
737.7021 37819.34739
737.8929 37871.61156
738.0836 37976.67235
738.2743 38225.52104
738.4650 38184.21351
738.6557 37853.97855
738.8463 37624.29885
739.0370 37580.92287
739.2276 37356.83413
739.4182 37323.18600
739.6088 37601.15680
739.7994 37349.64576
739.9900 37546.70131
740.1806 37452.67907
740.3711 37568.26642
740.5617 37787.54244
740.7522 37644.71710
740.9427 37614.67340
741.1332 37672.91763
741.3236 37290.31611
741.5141 37477.68477
741.7045 37838.04535
741.8949 37766.44836
742.0854 37534.29062
742.2758 37710.76409
742.4661 37115.99301
742.6565 36667.69265
742.8469 36934.19482
743.0372 37226.50140
743.2275 36902.59466
743.4178 37123.77529
743.6081 37184.19037
743.7984 37188.61398
743.9886 37260.82536
744.1789 37071.57256
744.3691 36811.33717
744.5593 36808.42906
744.7495 36469.03968
744.9397 36717.02821
745.1299 36497.03541
745.3200 36006.32162
745.5102 36338.39975
745.7003 36349.35638
745.8904 36520.23890
746.0805 36584.17648
746.2706 36441.57642
746.4607 36463.55112
746.6507 36505.24777
746.8408 36156.37629
747.0308 36548.99238
747.2208 36193.42404
747.4108 36350.11413
747.6007 36491.13726
747.7907 36796.34604
747.9806 36592.02020
748.1706 36504.12138
748.3605 36165.65359
748.5504 36142.94161
748.7403 36630.23530
748.9302 36076.87414
749.1200 36156.08957
749.3098 36035.75093
749.4997 35709.75526
749.6895 35977.71150
749.8793 35885.67578
750.0691 36354.43535
750.2588 35985.04322
750.4486 35826.42804
750.6383 35877.23815
750.8280 35333.37957
751.0177 35179.88431
751.2074 35307.82092
751.3971 35445.01434
751.5868 35443.08925
751.7764 35231.20641
751.9660 35011.13168
752.1557 35148.40703
752.3453 35269.74918
752.5348 35488.22648
752.7244 35769.76075
752.9140 35786.06258
753.1035 35582.98600
753.2930 35609.03616
753.4825 35192.92987
753.6720 35457.54791
753.8615 35422.03613
754.0510 35083.30210
754.2404 35113.10005
754.4299 35132.20760
754.6193 35088.46298
754.8087 34928.45519
754.9981 35063.21153
755.1875 34803.79533
755.3768 34603.99550
755.5662 34769.12322
755.7555 34785.83464
755.9448 34788.68132
756.1341 34745.24390
756.3234 34295.12085
756.5127 34342.55181
756.7019 34662.11685
756.8912 34767.19813
757.0804 34594.43148
757.2696 34633.73200
757.4588 34299.29871
757.6480 34152.90990
757.8371 33835.39282
758.0263 33950.28387
758.2154 34011.53862
758.4045 33699.44866
758.5936 33538.47832
758.7827 33896.91381
758.9718 34060.05500
759.1609 33813.62292
759.3499 33851.12122
759.5389 33372.22421
759.7280 33685.35863
759.9170 33815.99856
760.1059 33674.17673
760.2949 33573.25282
760.4839 33914.34202
760.6728 33673.72617
760.8617 33644.03062
761.0506 33276.11304
761.2395 32981.14410
761.4284 33286.70104
761.6173 33230.11566
761.8061 33217.62305
761.9950 33191.12234
762.1838 32890.99252
762.3726 33370.03289
762.5614 32974.16053
762.7502 33403.23046
762.9389 32643.02446
763.1277 32811.18317
763.3164 33269.35474
763.5051 33084.64844
763.6938 33353.19858
763.8825 33005.33061
764.0712 33573.31426
764.2598 33106.80746
764.4484 33350.29047
764.6371 33379.74026
764.8257 33124.82959
765.0143 33295.20011
765.2029 32880.05636
765.3914 32947.12734
765.5800 33238.06178
765.7685 32747.73710
765.9570 32817.69571
766.1455 32293.70243
766.3340 32034.47055
766.5225 32306.99375
766.7110 32301.60759
766.8994 32020.15524
767.0878 31722.62634
767.2762 32095.52049
767.4646 32008.11319
767.6530 32015.15820
767.8414 32127.14113
768.0298 31839.46296
768.2181 31697.06769
768.4064 31782.20175
768.5947 31790.96706
768.7830 31769.60675
768.9713 31700.50828
769.1596 31471.75017
769.3478 31391.44932
769.5360 31611.91315
769.7243 31537.96100
769.9125 31226.58783
770.1007 30974.99487
770.2888 30972.27107
770.4770 31068.70992
770.6651 30923.22222
770.8533 30780.66312
771.0414 30580.55609
771.2295 30773.65906
771.4176 30972.61923
771.6056 31066.23188
771.7937 30830.34684
771.9817 30533.78048
772.1698 31069.09904
772.3578 31036.63873
772.5458 30671.62926
772.7337 30241.96542
772.9217 30613.73318
773.1096 30359.96938
773.2976 30595.36290
773.4855 30897.43830
773.6734 30248.04788
773.8613 30294.63917
774.0492 30542.36147
774.2370 30278.62406
774.4249 30320.81221
774.6127 30569.92713
774.8005 30367.13727
774.9883 30395.31732
775.1761 30530.70853
775.3639 30041.87887
775.5516 30110.67014
775.7394 29834.84971
775.9271 29952.46455
776.1148 30028.38276
776.3025 29362.07612
776.4902 29505.84353
776.6778 29387.81909
776.8655 29723.66549
777.0531 29935.79409
777.2407 29971.51066
777.4283 29577.01044
777.6159 29623.39694
777.8035 29446.12476
777.9911 29261.70517
778.1786 29489.62362
778.3661 29023.07586
778.5536 29315.91491
778.7411 29366.35638
778.9286 29615.18458
779.1161 29380.54880
779.3036 29010.35797
779.4910 29077.73614
779.6784 29204.50541
779.8658 29358.08258
780.0532 28815.53470
780.2406 29085.80514
780.4280 28876.62561
780.6153 29054.53266
780.8026 28995.44876
780.9900 29173.47868
781.1773 28573.71055
781.3646 29003.80447
781.5518 28784.42606
781.7391 28604.22529
781.9263 28749.42627
782.1136 28562.07809
782.3008 28278.92593
782.4880 28419.76474
782.6752 28305.34473
782.8623 28289.96448
783.0495 28623.49667
783.2366 28011.64553
783.4237 28173.59890
783.6108 28525.17369
783.7979 28277.41043
783.9850 28274.42040
784.1721 28515.48680
784.3591 28050.29070
784.5462 27948.52713
784.7332 28057.11044
784.9202 28236.30770
785.1072 27786.49185
785.2941 27726.91643
785.4811 27604.03831
785.6681 27761.54759
785.8550 27761.36327
786.0419 27562.66934
786.2288 27463.69101
786.4157 27281.17604
786.6025 27252.60687
786.7894 27399.77391
786.9762 27347.55070
787.1631 26773.95562
787.3499 27125.05938
787.5367 27324.87969
787.7234 26933.82006
787.9102 27232.41390
788.0970 27258.52550
788.2837 27310.62583
788.4704 26703.28021
788.6571 26445.83006
788.8438 26460.45256
789.0305 26381.58528
789.2171 26390.45299
789.4038 26224.89519
789.5904 26458.79370
789.7770 26521.42059
789.9636 26502.49736
790.1502 26580.81168
790.3368 26565.37000
790.5233 26748.86800
790.7099 26402.45408
790.8964 25940.20706
791.0829 25937.52422
791.2694 25876.88386
791.4559 25992.67602
791.6423 25912.41612
791.8288 25955.85354
792.0152 26135.91095
792.2016 26119.44528
792.3880 26325.59382
792.5744 25933.53068
792.7608 25484.84121
792.9471 25501.24544
793.1335 26056.73648
793.3198 25716.07736
793.5061 25797.97563
793.6924 25404.43795
793.8787 25231.42555
794.0650 25269.57921
794.2512 25683.90377
794.4375 25760.82547
794.6237 25835.71969
794.8099 25798.69242
794.9961 25305.50058
795.1823 25225.36357
795.3684 25260.17903
795.5546 24926.29869
795.7407 24955.85088
795.9268 24858.67476
796.1129 25182.31526
796.2990 25248.87425
796.4851 25545.58396
796.6712 25332.20610
796.8572 25238.88016
797.0432 24918.47545
797.2292 25208.09919
797.4152 25225.52740
797.6012 24722.05477
797.7872 24527.27246
797.9731 24553.79365
798.1591 24375.74325
798.3450 24234.82252
798.5309 24479.08375
798.7168 24449.51108
798.9027 24387.74435
799.0885 24673.66126
799.2744 24498.12986
799.4602 24789.16670
799.6460 24755.41618
799.8318 25168.43003
800.0176 24619.88160
800.2034 24694.93966
800.3892 24172.64619
800.5749 24110.98185
800.7606 24067.13484
800.9463 24253.66383
801.1320 24150.42573
801.3177 24205.06553
801.5034 24101.06968
801.6890 24445.72234
801.8747 23912.71800
802.0603 23636.63133
802.2459 23617.05275
802.4315 23736.14213
802.6171 23393.49648
802.8026 23694.99844
802.9882 23616.35644
803.1737 23423.68354
803.3592 23732.37387
803.5447 23571.21921
803.7302 23883.69828
803.9157 23739.07072
804.1012 23816.87306
804.2866 23287.84177
804.4720 23386.71770
804.6574 23308.91537
804.8428 23159.78228
805.0282 23145.87658
805.2136 22999.71305
805.3989 23310.96334
805.5843 23141.86256
805.7696 23043.96965
805.9549 22911.89615
806.1402 22732.00257
806.3255 22692.33342
806.5107 22888.67218
806.6960 23098.50706
806.8812 22634.70358
807.0664 22813.67557
807.2516 22558.60106
807.4368 22375.14402
807.6220 22210.75357
807.8072 22245.99911
807.9923 22442.35835
808.1774 22320.48373
808.3625 22556.26637
808.5476 22570.09016
808.7327 22677.87476
808.9178 22279.27860
809.1028 22222.57035
809.2879 22092.25809
809.4729 22063.13598
809.6579 21902.20659
809.8429 22064.09852
810.0279 21962.47831
810.2128 21703.79938
810.3978 21888.73096
810.5827 22077.28744
810.7676 22182.96263
810.9525 22281.28561
811.1374 21980.68476
811.3223 21957.11264
811.5072 21754.58901
811.6920 21842.99982
811.8768 21916.33758
812.0616 21792.23067
812.2464 21863.17231
812.4312 21655.26252
812.6160 21746.82720
812.8007 21878.24536
812.9855 21886.25292
813.1702 21701.81285
813.3549 21685.40862
813.5396 21310.32315
813.7243 21391.44319
813.9089 21425.29611
814.0936 21478.93241
814.2782 21528.57517
814.4628 21366.33509
814.6474 21393.92123
814.8320 21392.36477
815.0166 21056.82557
815.2012 21162.54172
815.3857 21013.61343
815.5702 21003.47599
815.7547 21037.51323
815.9392 21187.24022
816.1237 20931.89948
816.3082 20700.62237
816.4926 20858.62316
816.6771 21002.73872
816.8615 20732.85740
817.0459 20918.79248
817.2303 20734.08618
817.4147 20870.82905
817.5990 20901.46666
817.7834 20614.73056
817.9677 20643.15637
818.1520 20817.21323
818.3363 20663.96373
818.5206 20451.65081
818.7049 20330.12434
818.8891 20445.36354
819.0734 20506.84357
819.2576 20650.63145
819.4418 20296.59909
819.6260 20244.25301
819.8102 20276.89763
819.9944 20296.08710
820.1785 20097.51605
820.3627 20281.36221
820.5468 20251.52330
820.7309 19957.92650
820.9150 19782.57942
821.0991 19630.53822
821.2831 19952.60178
821.4672 19826.79506
821.6512 19739.85879
821.8352 19725.64589
822.0192 20019.61132
822.2032 19775.12481
822.3872 19806.27442
822.5711 19580.56778
822.7551 19497.68648
822.9390 19535.51247
823.1229 19609.34174
823.3068 19619.37679
823.4907 19418.59393
823.6745 19428.99761
823.8584 19297.37466
824.0422 19426.31477
824.2261 19479.60292
824.4099 19511.91987
824.5937 19619.90926
824.7774 19652.30812
824.9612 19573.05173
825.1449 19248.59205
825.3287 19319.65656
825.5124 19302.65842
825.6961 19500.59460
825.8798 19353.46853
826.0634 19407.88305
826.2471 19279.53685
826.4307 19508.78648
826.6144 19293.97503
826.7980 19444.50074
826.9816 19250.96769
827.1652 19362.17239
827.3487 19283.59183
827.5323 18918.23421
827.7158 18742.43657
827.8993 19034.04684
828.0828 18819.62451
828.2663 18575.56808
828.4498 18780.56975
828.6333 18950.28492
828.8167 18699.47018
829.0001 18802.83117
829.1836 18893.88386
829.3670 18809.97858
829.5504 19070.29589
829.7337 18926.03697
829.9171 18873.15841
830.1004 18852.63777
830.2837 18796.83062
830.4671 18612.06288
830.6504 18505.58898
830.8336 18604.30108
831.0169 18478.10524
831.2002 18743.19432
831.3834 18647.24698
831.5666 18411.71010
831.7498 18455.39327
831.9330 18772.21403
832.1162 18645.89532
832.2993 18488.65228
832.4825 18602.49886
832.6656 18450.21191
832.8487 17995.58332
833.0318 18151.39279
833.2149 18047.27406
833.3980 18084.09653
833.5811 18231.95988
833.7641 18141.13246
833.9471 18021.92020
834.1301 17819.04842
834.3131 17682.44890
834.4961 17839.79434
834.6791 17873.83158
834.8620 18252.29621
835.0450 18083.60502
835.2279 18190.59091
835.4108 18109.18415
835.5937 18139.98560
835.7766 17908.87233
835.9594 17889.66238
836.1423 17913.48026
836.3251 18177.48391
836.5079 18152.04814
836.6907 17698.75073
836.8735 17649.84524
837.0563 17630.71721
837.2390 17732.25550
837.4218 17620.27257
837.6045 17887.98305
837.7872 17902.58506
837.9699 17750.72818
838.1526 17540.56563
838.3352 17499.17618
838.5179 17448.14080
838.7005 17545.54219
838.8831 17702.35516
839.0658 17642.00152
839.2483 17629.85707
839.4309 17713.90570
839.6135 17698.36162
839.7960 17260.23967
839.9786 17341.83074
840.1611 17232.67401
840.3436 17402.73733
840.5261 17203.79765
840.7085 17091.24128
840.8910 16986.79488
841.0734 16988.45373
841.2559 16909.15638
841.4383 17073.13724
841.6207 17304.14812
841.8030 17123.74255
841.9854 17069.10274
842.1678 16903.60639
842.3501 17027.36514
842.5324 16931.09013
842.7147 17086.79719
842.8970 17238.96127
843.0793 17189.87146
843.2615 17094.33372
843.4438 17127.85897
843.6260 17111.06562
843.8082 17038.01458
843.9904 17063.40939
844.1726 16892.28112
844.3548 16809.78894
844.5369 16734.21889
844.7191 16758.30300
844.9012 16639.64370
845.0833 16638.27156
845.2654 16962.03494
845.4475 17054.19353
845.6296 16781.03546
845.8116 16679.02613
845.9936 16637.28853
846.1757 16692.03074
846.3577 16615.06807
846.5397 16644.37450
846.7216 16511.19510
846.9036 16434.45771
847.0855 16193.98522
847.2675 16379.14207
847.4494 16314.93825
847.6313 16580.68268
847.8132 16673.72190
847.9950 16514.92240
848.1769 16436.40328
848.3587 16620.16751
848.5406 16391.49132
848.7224 16377.07362
848.9042 16260.13461
849.0860 16345.06387
849.2677 16183.54058
849.4495 16110.38713
849.6312 16095.12976
849.8129 16148.45887
849.9946 16278.09529
850.1763 16171.80571
850.3580 16016.38537
850.5397 15939.58654
850.7213 15683.61092
850.9029 15709.90684
851.0845 15841.07924
851.2661 15831.35139
851.4477 15817.83480
851.6293 15857.42203
851.8109 15823.50767
851.9924 15943.33432
852.1739 16040.48996
852.3554 15913.57733
852.5369 15769.99425
852.7184 15639.74343
852.8999 15628.17241
853.0813 15595.32299
853.2628 15664.38050
853.4442 15737.39058
853.6256 15665.87551
853.8070 15819.04310
853.9883 15821.58258
854.1697 15651.62165
854.3510 15509.86125
854.5324 15523.62360
854.7137 15535.23559
854.8950 15463.06517
855.0763 15477.05280
855.2575 15480.69818
855.4388 15484.07733
855.6200 15481.29209
855.8013 15516.94723
855.9825 15427.98346
856.1637 15430.62534
856.3449 15279.71053
856.5260 15331.19646
856.7072 15339.55217
856.8883 15517.11106
857.0694 15450.63400
857.2505 15475.45538
857.4316 15439.04250
857.6127 15316.94260
857.7938 15409.32647
857.9748 15443.26131
858.1558 15306.66180
858.3368 15214.81040
858.5178 15130.04497
858.6988 15249.62587
858.8798 15143.86876
859.0607 15299.69870
859.2417 15153.96525
859.4226 15146.32632
859.6035 15238.19820
859.7844 15279.46477
859.9653 15172.66320
860.1462 15006.71629
860.3270 14943.31118
860.5078 14876.93651
860.6887 14939.13332
860.8695 14820.65833
861.0503 14943.18830
861.2310 14677.23908
861.4118 14662.00219
861.5925 14594.60354
861.7733 14534.41374
861.9540 14397.44559
862.1347 14252.59276
862.3154 14232.56363
862.4960 14376.55631
862.6767 14369.40890
862.8573 14301.70305
863.0380 14268.77171
863.2186 14351.85780
863.3992 14274.85418
863.5797 14279.09347
863.7603 14246.57173
863.9409 14181.67160
864.1214 14216.09796
864.3019 14332.85265
864.4824 14305.43035
864.6629 14210.97803
864.8434 13949.35003
865.0238 14102.08754
865.2043 14177.51423
865.3847 13845.00602
865.5651 13777.52545
865.7455 13980.97066
865.9259 13963.03046
866.1063 13861.98368
866.2866 13826.79958
866.4670 13829.52338
866.6473 13741.95223
866.8276 13654.54492
867.0079 13594.55992
867.1882 13558.94574
867.3684 13447.16761
867.5487 13388.39091
867.7289 13385.60567
867.9091 13472.54194
868.0893 13285.78767
868.2695 13096.26864
868.4497 13037.57386
868.6299 13129.40478
868.8100 13213.33054
868.9901 13159.83759
869.1703 13238.84823
869.3504 13295.10593
869.5304 13215.07131
869.7105 13280.93399
869.8906 13205.54826
870.0706 13137.78097
870.2506 13270.10023
870.4306 13266.29101
870.6106 13223.46798
870.7906 13326.99280
870.9706 13168.27523
871.1505 12989.03700
871.3305 13023.89343
871.5104 12903.55478
871.6903 12844.45041
871.8702 12927.90513
872.0500 12909.22766
872.2299 12955.49127
872.4097 12752.12797
872.5896 12831.58916
872.7694 12865.21681
872.9492 12756.51063
873.1290 12508.76785
873.3087 12540.24513
873.4885 12812.50209
873.6682 12764.53867
873.8480 12633.24339
874.0277 12625.58399
874.2074 12414.64320
874.3870 12520.74847
874.5667 12569.24437
874.7463 12652.67861
874.9260 12499.96158
875.1056 12478.53983
875.2852 12377.69785
875.4648 12306.48998
875.6444 12233.84852
875.8239 12416.54782
876.0035 12335.38681
876.1830 12337.49622
876.3625 12259.93965
876.5420 12240.89354
876.7215 12298.29810
876.9010 12059.32063
877.0804 12115.33257
877.2599 12006.79023
877.4393 12173.82256
877.6187 12198.68490
877.7981 12239.19372
877.9775 12026.16401
878.1568 12288.30401
878.3362 12149.39029
878.5155 12086.64053
878.6948 11843.23944
878.8741 11850.32542
879.0534 11804.59427
879.2327 11753.72273
879.4119 11719.60357
879.5912 11639.13888
879.7704 11787.88285
879.9496 11894.07003
880.1288 11749.11480
880.3080 11546.81645
880.4872 11702.54399
880.6663 11684.80858
880.8455 11700.80322
881.0246 11727.59065
881.2037 11733.34544
881.3828 11657.63204
881.5619 11590.47914
881.7409 11537.55963
881.9200 11382.85607
882.0990 11553.30851
882.2780 11518.69784
882.4570 11424.16360
882.6360 11399.21934
882.8150 11231.40878
882.9940 11171.38282
883.1729 11215.63942
883.3518 11400.26380
883.5308 11342.81828
883.7096 11344.49761
883.8885 11170.58411
884.0674 11098.12697
884.2463 11061.01778
884.4251 11082.02994
884.6039 10964.35365
884.7827 11047.25543
884.9615 10968.69535
885.1403 11050.51170
885.3191 11097.43066
885.4978 10851.98161
885.6765 10897.91755
885.8553 11034.63994
886.0340 10969.20734
886.2127 10928.43228
886.3913 10835.33162
886.5700 10758.73759
886.7486 10666.88619
886.9273 10618.02166
887.1059 10535.42708
887.2845 10526.27266
887.4630 10614.25340
887.6416 10688.84042
887.8202 10704.15922
887.9987 10647.10282
888.1772 10667.76682
888.3557 10648.14728
888.5342 10540.46508
888.7127 10610.83329
888.8912 10566.22853
889.0696 10549.45567
889.2481 10371.38478
889.4265 10322.76600
889.6049 10267.16365
889.7833 10284.01844
889.9616 10227.12586
890.1400 10205.54027
890.3183 9916.10085
890.4967 10055.38320
890.6750 10261.44982
890.8533 10162.61485
891.0316 10150.63423
891.2098 10043.07491
891.3881 10028.90297
891.5663 10001.58307
891.7445 9988.12791
891.9227 9861.05145
892.1009 9839.87545
892.2791 10003.44672
892.4573 10042.95203
892.6354 9906.80307
892.8136 9956.97831
892.9917 9938.36227
893.1698 9793.75520
893.3479 9931.48110
893.5259 10073.54869
893.7040 9918.35362
893.8820 9828.05867
894.0601 9846.53135
894.2381 9921.46653
894.4161 9920.72926
894.5941 9920.60638
894.7720 9936.23238
894.9500 9931.99309
895.1279 10011.02420
895.3058 9891.01323
895.4838 9886.44626
895.6616 9754.98715
895.8395 9696.84532
896.0174 9646.93632
896.1952 9699.61007
896.3731 9770.63363
896.5509 9706.69605
896.7287 9722.42445
896.9065 9650.66362
897.0842 9663.48390
897.2620 9602.31108
897.4397 9550.16979
897.6175 9547.73271
897.7952 9565.46812
897.9729 9696.86580
898.1506 9693.46617
898.3282 9580.47973
898.5059 9509.31282
898.6835 9509.88625
898.8611 9601.14374
899.0388 9482.01339
899.2163 9330.87330
899.3939 9283.99530
899.5715 9386.68045
899.7490 9358.23416
899.9266 9384.73488
900.1041 9471.89643
900.2816 9455.94275
900.4591 9345.65963
900.6365 9366.48748
900.8140 9229.62173
900.9914 9249.38462
901.1689 9209.18300
901.3463 9177.35756
901.5237 9219.38188
901.7011 9175.47343
901.8784 9153.62160
902.0558 9061.60637
902.2331 9100.62017
902.4104 9225.79202
902.5878 9216.76048
902.7650 9170.23063
902.9423 9095.60265
903.1196 9139.22438
903.2968 9262.71690
903.4741 9218.19406
903.6513 9117.76167
903.8285 9058.84161
904.0057 9063.75674
904.1828 8907.21000
904.3600 8823.07945
904.5371 8845.93478
904.7143 8894.77883
904.8914 8949.39816
905.0685 9034.55270
905.2456 9048.70417
905.4226 9016.36674
905.5997 9061.19678
905.7767 9137.77033
905.9537 8949.82823
906.1307 8853.61466
906.3077 8790.98778
906.4847 8759.63338
906.6617 8773.60052
906.8386 8787.79295
907.0156 8751.42102
907.1925 8661.61759
907.3694 8633.02795
907.5463 8697.90760
907.7231 8708.00408
907.9000 8726.27197
908.0768 8670.09618
908.2537 8531.61254
908.4305 8565.85457
908.6073 8736.49133
908.7841 8695.36812
908.9608 8585.71987
909.1376 8574.68132
909.3143 8542.97876
909.4910 8465.21739
909.6677 8435.43992
909.8444 8484.42734
910.0211 8509.22824
910.1978 8423.58218
910.3744 8452.27423
910.5510 8479.75797
910.7277 8531.57158
910.9043 8450.94305
911.0808 8504.53839
911.2574 8452.17183
911.4340 8370.86747
911.6105 8250.01683
911.7870 8289.35831
911.9636 8299.12712
912.1401 8245.18363
912.3165 8297.81642
912.4930 8270.02549
912.6695 8187.79954
912.8459 8157.30529
913.0223 8166.58259
913.1987 8172.33738
913.3751 8116.03872
913.5515 8032.56351
913.7279 8071.63875
913.9042 8080.30166
914.0805 8030.18787
914.2568 8000.57424
914.4331 7982.59307
914.6094 7984.49768
914.7857 7937.94735
914.9620 7941.65418
915.1382 7890.04537
915.3144 7800.81537
915.4906 7959.88110
915.6668 7994.40985
915.8430 7878.26955
916.0192 7699.76859
916.1953 7802.02367
916.3715 7896.82414
916.5476 7809.43732
916.7237 7839.58342
916.8998 7828.70870
917.0759 7782.77276
917.2519 7725.20436
917.4280 7792.99213
917.6040 7774.39657
917.7800 7789.98161
917.9560 7751.52076
918.1320 7724.30325
918.3080 7720.02300
918.4839 7636.54779
918.6599 7579.75762
918.8358 7656.96604
919.0117 7647.85258
919.1876 7579.16371
919.3635 7578.95891
919.5394 7675.07009
919.7152 7618.70999
919.8911 7513.52631
920.0669 7507.19809
920.2427 7433.86033
920.4185 7368.98068
920.5942 7380.28546
920.7700 7348.43955
920.9458 7396.66921
921.1215 7419.23783
921.2972 7380.30594
921.4729 7401.50242
921.6486 7256.13760
921.8243 7110.99805
921.9999 7155.41850
922.1756 7186.52714
922.3512 7201.88691
922.5268 7130.98623
922.7024 7209.01384
922.8780 7257.55070
923.0535 7271.88648
923.2291 7247.37229
923.4046 7254.04867
923.5801 7367.13750
923.7557 7267.42191
923.9311 7213.25313
924.1066 7167.05096
924.2821 7233.56898
924.4575 7222.59187
924.6330 7182.06257
924.8084 7079.11118
924.9838 7008.43578
925.1592 7014.53872
925.3345 7002.80386
925.5099 6977.63433
925.6852 6961.41442
925.8606 6930.57201
926.0359 6905.32055
926.2112 6908.26963
926.3864 6860.79771
926.5617 6793.58338
926.7370 6797.10588
926.9122 6742.99855
927.0874 6710.74304
927.2626 6690.69343
927.4378 6703.59563
927.6130 6683.38218
927.7882 6640.43627
927.9633 6595.74960
928.1384 6520.97826
928.3135 6462.54971
928.4886 6402.29847
928.6637 6452.12555
928.8388 6460.44030
929.0139 6483.86906
929.1889 6436.13091
929.3639 6405.10418
929.5389 6441.41467
929.7139 6417.82207
929.8889 6424.86708
930.0639 6474.01833
930.2388 6391.93575
930.4138 6345.40590
930.5887 6371.35366
930.7636 6437.40065
930.9385 6411.06377
931.1134 6265.22792
931.2882 6245.89509
931.4631 6184.47651
931.6379 6164.11970
931.8127 6137.61899
931.9875 6165.40992
932.1623 6150.76695
932.3371 6140.95718
932.5118 6144.95071
932.6866 6133.66641
932.8613 6097.37640
933.0360 6085.08859
933.2107 6037.08420
933.3854 5989.75564
933.5600 6003.70231
933.7347 5894.87325
933.9093 5887.82824
934.0839 5909.98726
934.2586 5955.16545
934.4331 5938.16731
934.6077 5886.51754
934.7823 5842.07662
934.9568 5855.44985
935.1314 5823.62442
935.3059 5810.82461
935.4804 5765.62594
935.6549 5792.72057
935.8293 5788.46079
936.0038 5751.33112
936.1782 5779.36781
936.3526 5786.10563
936.5271 5715.14351
936.7015 5658.80389
936.8758 5661.07714
937.0502 5682.96992
937.2246 5671.84945
937.3989 5738.18316
937.5732 5651.98416
937.7475 5611.72109
937.9218 5574.34566
938.0961 5555.38147
938.2703 5557.40896
938.4446 5527.07854
938.6188 5569.65581
938.7930 5526.17744
938.9672 5482.04371
939.1414 5519.78777
939.3156 5437.43895
939.4897 5374.42295
939.6639 5352.75544
939.8380 5394.45209
940.0121 5384.33512
940.1862 5412.00318
940.3603 5412.37181
940.5344 5453.65886
940.7084 5434.87899
940.8824 5422.75501
941.0565 5421.30096
941.2305 5371.08476
941.4045 5289.49369
941.5784 5253.32656
941.7524 5286.99517
941.9263 5347.53312
942.1003 5355.19252
942.2742 5323.87908
942.4481 5210.01202
942.6220 5220.80482
942.7958 5254.96493
942.9697 5269.48503
943.1435 5256.93098
943.3174 5247.91992
943.4912 5220.37474
943.6650 5178.65762
943.8387 5130.98091
944.0125 5084.73777
944.1863 5097.16894
944.3600 5095.22337
944.5337 5072.18372
944.7074 5096.30880
944.8811 5090.22633
945.0548 5035.07453
945.2284 4990.26497
945.4021 4969.04802
945.5757 5002.65518
945.7493 4945.33254
945.9229 4844.85919
946.0965 4808.89686
946.2701 4788.66293
946.4436 4820.69316
946.6172 4829.66326
946.7907 4843.32322
946.9642 4825.36253
947.1377 4813.52527
947.3112 4830.33909
947.4847 4843.40513
947.6581 4855.97966
947.8315 4845.76030
948.0050 4781.20832
948.1784 4767.79413
948.3518 4787.98710
948.5251 4765.17273
948.6985 4804.73948
948.8718 4778.60740
949.0452 4722.53402
949.2185 4718.86815
949.3918 4695.15268
949.5651 4717.92609
949.7383 4652.67780
949.9116 4670.98665
950.0848 4689.33645
950.2581 4666.58351
950.4313 4701.48090
950.6045 4723.35321
950.7776 4699.47389
950.9508 4636.72413
951.1239 4619.99222
951.2971 4556.38231
951.4702 4557.01718
951.6433 4552.51165
951.8164 4522.69323
951.9895 4552.36830
952.1625 4489.35230
952.3356 4515.11574
952.5086 4467.15232
952.6816 4520.07183
952.8546 4476.04050
953.0276 4457.97742
953.2006 4468.05342
953.3735 4443.37540
953.5465 4451.34200
953.7194 4436.39182
953.8923 4401.49444
954.0652 4438.17356
954.2381 4391.90994
954.4109 4359.98211
954.5838 4336.14375
954.7566 4316.60613
954.9294 4296.29028
955.1022 4317.44580
955.2750 4315.33639
955.4478 4304.68695
955.6206 4304.50264
955.7933 4321.78749
955.9660 4312.55115
956.1388 4289.28623
956.3115 4259.09917
956.4841 4218.46747
956.6568 4191.70052
956.8295 4173.30976
957.0021 4189.18152
957.1747 4189.48871
957.3473 4174.04703
957.5199 4133.39485
957.6925 4161.69778
957.8651 4170.38116
958.0376 4209.90696
958.2102 4162.00497
958.3827 4180.43669
958.5552 4218.30363
958.7277 4194.15808
958.9001 4142.69263
959.0726 4095.93750
959.2450 4067.24546
959.4175 4047.54400
959.5899 3987.74331
959.7623 3986.28925
959.9347 3961.01732
960.1070 3919.77123
960.2794 3944.38781
960.4517 3922.96606
960.6241 3949.61013
960.7964 3982.27523
960.9687 3986.22781
961.1409 3964.53982
961.3132 3932.69391
961.4855 3883.95225
961.6577 3901.87198
961.8299 3893.35243
962.0021 3889.31793
962.1743 3847.19122
962.3465 3799.45306
962.5186 3823.82389
962.6908 3811.72040
962.8629 3812.19143
963.0350 3807.09199
963.2071 3801.66487
963.3792 3774.22209
963.5513 3766.35789
963.7233 3799.00251
963.8954 3780.14072
964.0674 3759.49719
964.2394 3765.39534
964.4114 3731.25570
964.5834 3707.62215
964.7553 3737.05146
964.9273 3725.99242
965.0992 3687.49061
965.2711 3712.59871
965.4430 3713.97085
965.6149 3705.57418
965.7868 3667.64580
965.9587 3647.20707
966.1305 3668.99745
966.3023 3679.03250
966.4741 3685.29929
966.6459 3651.67164
966.8177 3684.60298
966.9895 3639.52718
967.1613 3608.68478
967.3330 3616.11890
967.5047 3584.51874
967.6764 3601.25065
967.8481 3582.24550
968.0198 3571.67798
968.1915 3542.63778
968.3631 3545.01343
968.5347 3544.37856
968.7064 3540.61029
968.8780 3520.92931
969.0496 3532.37746
969.2211 3501.10498
969.3927 3539.66823
969.5642 3502.53855
969.7358 3465.36792
969.9073 3443.14746
970.0788 3493.62989
970.2503 3495.18635
970.4217 3501.49409
970.5932 3483.71772
970.7646 3471.16367
970.9360 3471.18415
971.1074 3467.92788
971.2788 3497.82823
971.4502 3476.11976
971.6216 3444.37624
971.7929 3415.23365
971.9643 3387.83182
972.1356 3412.12073
972.3069 3422.66777
972.4782 3396.43329
972.6494 3370.83368
972.8207 3363.64531
972.9919 3361.82262
973.1632 3333.90881
973.3344 3302.10385
973.5056 3285.59723
973.6768 3279.96531
973.8479 3338.59866
974.0191 3346.13518
974.1902 3333.02818
974.3614 3287.37896
974.5325 3300.42452
974.7036 3285.26955
974.8746 3271.40480
975.0457 3267.08359
975.2167 3238.76018
975.3878 3232.08380
975.5588 3232.47292
975.7298 3252.87068
975.9008 3212.97625
976.0718 3199.15246
976.2427 3194.23734
976.4137 3179.86060
976.5846 3174.80212
976.7555 3170.13275
976.9264 3156.92335
977.0973 3158.25453
977.2682 3165.87297
977.4390 3173.36854
977.6098 3191.59546
977.7807 3202.73641
977.9515 3218.42385
978.1223 3191.57498
978.2930 3163.68165
978.4638 3141.52262
978.6346 3096.91786
978.8053 3077.23688
978.9760 3070.08947
979.1467 3047.97141
979.3174 3055.63081
979.4881 3059.76771
979.6587 3059.54243
979.8294 3065.03099
980.0000 3034.29098
980.1706 3040.25057
980.3412 3012.82827
980.5118 3009.14192
980.6824 3011.86572
980.8529 3026.14006
981.0235 3019.23841
981.1940 3028.98674
981.3645 3001.50300
981.5350 3000.31518
981.7055 2970.43531
981.8759 2986.90098
982.0464 2981.39195
982.2168 2956.77536
982.3872 2975.47332
982.5576 2971.25450
982.7280 2960.09307
982.8984 2964.10709
983.0687 2974.94085
983.2391 2935.10785
983.4094 2929.29162
983.5797 2915.52927
983.7500 2920.15768
983.9203 2888.41417
984.0906 2899.78039
984.2608 2878.27672
984.4311 2885.75181
984.6013 2875.79868
984.7715 2906.08814
984.9417 2899.69847
985.1119 2884.37967
985.2820 2861.27858
985.4522 2854.64316
985.6223 2855.44187
985.7924 2848.56069
985.9625 2862.32304
986.1326 2881.79923
986.3027 2852.75903
986.4727 2871.31363
986.6428 2855.40091
986.8128 2839.95923
986.9828 2835.53561
987.1528 2817.77972
987.3228 2830.92768
987.4928 2833.93820
987.6627 2819.47954
987.8327 2796.64469
988.0026 2798.09874
988.1725 2799.42992
988.3424 2759.49453
988.5123 2775.63253
988.6821 2754.19029
988.8520 2779.09359
989.0218 2746.18274
989.1916 2769.75486
989.3614 2734.63219
989.5312 2734.14068
989.7010 2704.95712
989.8707 2707.78332
990.0405 2709.23738
990.2102 2712.35029
990.3799 2694.63536
990.5496 2691.60437
990.7193 2695.82318
990.8890 2699.26377
991.0586 2680.52486
991.2283 2684.55936
991.3979 2673.02929
991.5675 2678.14921
991.7371 2652.91824
991.9067 2647.57304
992.0762 2634.17933
992.2458 2639.77028
992.4153 2645.52507
992.5848 2666.23004
992.7543 2675.89645
992.9238 2648.92470
993.0933 2641.73633
993.2627 2641.12194
993.4322 2618.53284
993.6016 2624.63579
993.7710 2604.07418
993.9404 2613.06477
994.1098 2599.48673
994.2792 2605.67160
994.4485 2593.73194
994.6179 2587.01460
994.7872 2602.00574
994.9565 2600.53120
995.1258 2594.34633
995.2951 2594.79689
995.4643 2600.92031
995.6336 2606.38839
995.8028 2578.35170
995.9720 2557.23714
996.1412 2566.61684
996.3104 2561.68123
996.4796 2553.40744
996.6487 2557.44194
996.8179 2553.01832
996.9870 2556.41795
997.1561 2530.96170
997.3252 2533.05063
997.4943 2513.96356
997.6634 2507.67630
997.8324 2519.69787
998.0014 2521.86872
998.1705 2510.48201
998.3395 2482.34292
998.5085 2458.81176
998.6774 2471.32485
998.8464 2447.89609
999.0153 2468.82633
999.1843 2479.55768
999.3532 2478.47226
999.5221 2474.02817
999.6910 2483.57170
999.8599 2485.88591
1000.0287 2496.00287
1000.1976 2486.27502
1000.3664 2491.74310
1000.5352 2485.80399
1000.7040 2475.72798
1000.8728 2461.06453
1001.0415 2434.93245
1001.2103 2414.43228
1001.3790 2431.92193
1001.5478 2415.06715
1001.7165 2404.04908
1001.8851 2407.65350
1002.0538 2407.20295
1002.2225 2415.76346
1002.3911 2415.39482
1002.5598 2382.19725
1002.7284 2390.96256
1002.8970 2382.21773
1003.0656 2391.78174
1003.2341 2363.94985
1003.4027 2367.59523
1003.5712 2323.56390
1003.7398 2338.90319
1003.9083 2344.80134
1004.0768 2330.73180
1004.2453 2320.57387
1004.4137 2333.16888
1004.5822 2332.22681
1004.7506 2334.93013
1004.9190 2317.89103
1005.0874 2324.75173
1005.2558 2309.67868
1005.4242 2310.78458
1005.5926 2318.66926
1005.7609 2308.77757
1005.9292 2281.92870
1006.0976 2300.19658
1006.2659 2298.06669
1006.4342 2301.44584
1006.6024 2312.62775
1006.7707 2318.34158
1006.9389 2298.66060
1007.1071 2297.41134
1007.2754 2290.71449
1007.4436 2290.79640
1007.6117 2276.41966
1007.7799 2275.80527
1007.9481 2262.71875
1008.1162 2279.00010
1008.2843 2274.12594
1008.4524 2269.25177
1008.6205 2258.66377
1008.7886 2271.44310
1008.9566 2251.57780
1009.1247 2248.97688
1009.2927 2237.83593
1009.4607 2236.91435
1009.6287 2218.93318
1009.7967 2227.67801
1009.9647 2219.71141
1010.1327 2212.85071
1010.3006 2207.93559
1010.4685 2204.06493
1010.6364 2202.28320
1010.8043 2202.69279
1010.9722 2182.97085
1011.1401 2172.23949
1011.3079 2175.55720
1011.4758 2183.93340
1011.6436 2175.80296
1011.8114 2185.32601
1011.9792 2177.87141
1012.1470 2196.79464
1012.3147 2190.40498
1012.4825 2185.36697
1012.6502 2183.29852
1012.8179 2193.27213
1012.9856 2169.92529
1013.1533 2183.31900
1013.3210 2157.41220
1013.4886 2153.58250
1013.6563 2134.59783
1013.8239 2141.45852
1013.9915 2151.69837
1014.1591 2126.65171
1014.3267 2150.51055
1014.4942 2142.64635
1014.6618 2132.30410
1014.8293 2142.87162
1014.9969 2135.64229
1015.1644 2147.76627
1015.3319 2139.75871
1015.4993 2129.88750
1015.6668 2130.62477
1015.8342 2114.97829
1016.0017 2115.36740
1016.1691 2127.98289
1016.3365 2111.59914
1016.5039 2106.86833
1016.6712 2113.54471
1016.8386 2091.24233
1017.0059 2099.78236
1017.1733 2103.87830
1017.3406 2096.09602
1017.5079 2097.16096
1017.6752 2076.70175
1017.8424 2078.62684
1018.0097 2074.34659
1018.1769 2085.15986
1018.3441 2066.76910
1018.5113 2071.78663
1018.6785 2060.44088
1018.8457 2081.73975
1019.0129 2066.42095
1019.1800 2068.48940
1019.3471 2068.40748
1019.5142 2078.64732
1019.6813 2071.62279
1019.8484 2074.71522
1020.0155 2068.53036
1020.1826 2053.60066
1020.3496 2047.21100
1020.5166 2035.55806
1020.6836 2019.82966
1020.8506 2024.68335
1021.0176 2018.37560
1021.1846 2026.15788
1021.3515 2013.58335
1021.5185 2028.57449
1021.6854 2021.44755
1021.8523 2024.41711
1022.0192 2022.14386
1022.1861 2018.02745
1022.3529 2016.47099
1022.5198 2019.58390
1022.6866 2010.04037
1022.8534 2012.33409
1023.0202 2000.14868
1023.1870 2001.39794
1023.3538 1992.40736
1023.5205 2001.76658
1023.6873 1998.28503
1023.8540 2004.30606
1024.0207 1982.20847
1024.1874 1997.26104
1024.3541 1987.20552
1024.5207 2000.29204
1024.6874 1983.68301
1024.8540 2000.06676
1025.0206 1967.79077
1025.1872 1975.18394
1025.3538 1968.75332
1025.5204 1990.91234
1025.6870 1974.44667
1025.8535 1966.29576
1026.0201 1965.90664
1026.1866 1973.46365
1026.3531 1960.37713
1026.5196 1968.20037
1026.6860 1962.05646
1026.8525 1966.48007
1027.0189 1932.42235
1027.1853 1955.33912
1027.3518 1938.79154
1027.5181 1957.44853
1027.6845 1942.49836
1027.8509 1939.34449
1028.0172 1920.91277
1028.1836 1918.70096
1028.3499 1922.24395
1028.5162 1922.40779
1028.6825 1912.84377
1028.8488 1914.33879
1029.0150 1909.60798
1029.1813 1902.70633
1029.3475 1903.91463
1029.5137 1906.18787
1029.6799 1914.27735
1029.8461 1897.79120
1030.0123 1888.14527
1030.1784 1893.57239
1030.3446 1905.00005
1030.5107 1904.61094
1030.6768 1893.67478
1030.8429 1897.68880
1031.0090 1879.40044
1031.1750 1886.46593
1031.3411 1882.18568
1031.5071 1890.47995
1031.6732 1883.23014
1031.8392 1884.56132
1032.0051 1872.58071
1032.1711 1875.57074
1032.3371 1868.64861
1032.5030 1873.39989
1032.6690 1856.85231
1032.8349 1872.43735
1033.0008 1865.74049
1033.1667 1867.15359
1033.3325 1869.79547
1033.4984 1863.89732
1033.6642 1855.93072
1033.8300 1880.81354
1033.9959 1845.40416
1034.1616 1864.59363
1034.3274 1857.91725
1034.4932 1857.87629
1034.6589 1850.33977
1034.8247 1858.53164
1034.9904 1847.51357
1035.1561 1855.50065
1035.3218 1843.43811
1035.4875 1844.09346
1035.6531 1834.01745
1035.8188 1851.22039
1035.9844 1830.72023
1036.1500 1836.02446
1036.3156 1822.03684
1036.4812 1831.92853
1036.6468 1829.53240
1036.8123 1821.85252
1036.9779 1820.82854
1037.1434 1827.17724
1037.3089 1825.10879
1037.4744 1819.80455
1037.6399 1820.54182
1037.8053 1810.75253
1037.9708 1808.52024
1038.1362 1818.88297
1038.3016 1809.23703
1038.4670 1815.99533
1038.6324 1812.98482
1038.7978 1782.36768
1038.9632 1812.67762
1039.1285 1818.86249
1039.2938 1797.35881
1039.4592 1792.81232
1039.6245 1798.11656
1039.7897 1805.30493
1039.9550 1797.13354
1040.1203 1798.64903
1040.2855 1780.23780
1040.4507 1799.03815
1040.6159 1784.98908
1040.7811 1792.27985
1040.9463 1779.97156
1041.1115 1780.05348
1041.2766 1768.58485
1041.4418 1767.54039
1041.6069 1754.72010
1041.7720 1759.92195
1041.9371 1753.16365
1042.1021 1767.33559
1042.2672 1761.53984
1042.4323 1763.46493
1042.5973 1759.18468
1042.7623 1757.95590
1042.9273 1754.16715
1043.0923 1763.73117
1043.2572 1747.36790
1043.4222 1746.81495
1043.5871 1741.46975
1043.7521 1747.63413
1043.9170 1753.53228
1044.0819 1740.89632
1044.2467 1750.35793
1044.4116 1747.16310
1044.5765 1733.11403
1044.7413 1736.47270
1044.9061 1738.68451
1045.0709 1745.95480
1045.2357 1728.07603
1045.4005 1721.74781
1045.5652 1718.16386
1045.7300 1712.79818
1045.8947 1709.29616
1046.0594 1714.21128
1046.2241 1717.28324
1046.3888 1719.61792
1046.5535 1712.47051
1046.7181 1726.70389
1046.8828 1717.34468
1047.0474 1698.52384
1047.2120 1699.34303
1047.3766 1713.80169
1047.5412 1692.74857
1047.7057 1705.34358
1047.8703 1698.27809
1048.0348 1703.21369
1048.1993 1703.80760
1048.3639 1698.11425
1048.5283 1689.57422
1048.6928 1686.19507
1048.8573 1685.99027
1049.0217 1681.05467
1049.1861 1680.89083
1049.3506 1691.27403
1049.5150 1683.94230
1049.6793 1676.24194
1049.8437 1672.67848
1050.0081 1675.01316
1050.1724 1665.16243
1050.3367 1673.04711
1050.5010 1666.90320
1050.6653 1668.31630
1050.8296 1660.39066
1050.9939 1668.48014
1051.1581 1656.86816
1051.3224 1653.55045
1051.4866 1649.61835
1051.6508 1657.23679
1051.8150 1645.52241
1051.9791 1642.94197
1052.1433 1641.01688
1052.3074 1652.36263
1052.4716 1636.94142
1052.6357 1645.87057
1052.7998 1639.29659
1052.9639 1642.28662
1053.1279 1629.44586
1053.2920 1629.28202
1053.4560 1627.90988
1053.6201 1647.67278
1053.7841 1624.69457
1053.9481 1622.78996
1054.1120 1625.24752
1054.2760 1621.92981
1054.4399 1624.57169
1054.6039 1621.41782
1054.7678 1602.94514
1054.9317 1614.18849
1055.0956 1622.17557
1055.2595 1614.08609
1055.4233 1606.57005
1055.5872 1605.27982
1055.7510 1604.27632
1055.9148 1608.92521
1056.0786 1592.74626
1056.2424 1619.90232
1056.4062 1594.95806
1056.5699 1606.59052
1056.7336 1605.11599
1056.8974 1588.67080
1057.0611 1585.70124
1057.2248 1588.01545
1057.3885 1588.83464
1057.5521 1588.32264
1057.7158 1586.02892
1057.8794 1594.97854
1058.0430 1590.06342
1058.2066 1589.14183
1058.3702 1575.66620
1058.5338 1587.99497
1058.6973 1578.24664
1058.8609 1575.21564
1059.0244 1577.28409
1059.1879 1574.08926
1059.3514 1563.43982
1059.5149 1580.11029
1059.6784 1575.99387
1059.8418 1568.02727
1060.0053 1565.73355
1060.1687 1568.04775
1060.3321 1548.16198
1060.4955 1559.97876
1060.6589 1552.36031
1060.8222 1553.36382
1060.9856 1545.37674
1061.1489 1553.22046
1061.3122 1551.76640
1061.4755 1552.99518
1061.6388 1546.11401
1061.8021 1552.54463
1061.9654 1542.87822
1062.1286 1544.18892
1062.2918 1535.79225
1062.4550 1541.95663
1062.6182 1543.30829
1062.7814 1543.14445
1062.9446 1543.84076
1063.1077 1528.46052
1063.2709 1520.92399
1063.4340 1524.48746
1063.5971 1515.35352
1063.7602 1533.94907
1063.9233 1511.54430
1064.0863 1524.54890
1064.2494 1511.27806
1064.4124 1515.08728
1064.5754 1509.31201
1064.7384 1521.35407
1064.9014 1511.38046
1065.0644 1519.51089
1065.2274 1496.45077
1065.3903 1507.93987
1065.5532 1499.27696
1065.7162 1505.58471
1065.8790 1499.39984
1066.0419 1501.14061
1066.2048 1505.29799
1066.3677 1507.16164
1066.5305 1495.50870
1066.6933 1495.40630
1066.8561 1485.43269
1067.0189 1487.58306
1067.1817 1474.35318
1067.3445 1487.43970
1067.5072 1474.49654
1067.6699 1483.05705
1067.8327 1482.25834
1067.9954 1480.16941
1068.1580 1471.48603
1068.3207 1473.71831
1068.4834 1464.37958
1068.6460 1477.30226
1068.8086 1461.84009
1068.9713 1467.43105
1069.1339 1458.33807
1069.2964 1461.30762
1069.4590 1459.34157
1069.6216 1461.98345
1069.7841 1464.50245
1069.9466 1455.12276
1070.1091 1450.39195
1070.2716 1452.50136
1070.4341 1447.62719
1070.5966 1451.98936
1070.7590 1438.28845
1070.9214 1451.12922
1071.0839 1446.15265
1071.2463 1452.33752
1071.4086 1441.13513
1071.5710 1434.92978
1071.7334 1432.30838
1071.8957 1439.53771
1072.0580 1429.33883
1072.2204 1428.88828
1072.3827 1415.31024
1072.5449 1428.56060
1072.7072 1415.47408
1072.8695 1424.07555
1073.0317 1412.79124
1073.1939 1420.49160
1073.3561 1418.58699
1073.5183 1427.76189
1073.6805 1407.52796
1073.8427 1408.40859
1074.0048 1395.11727
1074.1669 1413.42611
1074.3291 1408.01948
1074.4912 1407.24125
1074.6532 1395.89550
1074.8153 1396.98092
1074.9774 1394.52336
1075.1394 1402.34660
1075.3014 1392.43443
1075.4635 1400.40103
1075.6255 1388.09274
1075.7874 1400.99494
1075.9494 1377.07467
1076.1114 1396.44845
1076.2733 1386.61820
1076.4352 1394.68720
1076.5971 1374.12559
1076.7590 1385.12318
1076.9209 1376.86987
1077.0828 1384.75455
1077.2446 1377.48426
1077.4064 1383.77152
1077.5683 1364.76638
1077.7301 1370.31637
1077.8918 1367.10106
1078.0536 1372.24146
1078.2154 1362.04258
1078.3771 1367.71545
1078.5388 1362.71841
1078.7006 1371.62707
1078.8623 1348.52598
1079.0239 1351.82321
1079.1856 1355.34572
1079.3473 1355.73483
1079.5089 1353.15439
1079.6705 1350.14388
1079.8321 1345.82266
1079.9937 1348.75126
1080.1553 1345.08540
1080.3169 1349.30421
1080.4784 1334.53836
1080.6399 1341.62433
1080.8014 1341.37857
1080.9629 1347.66584
1081.1244 1342.27968
1081.2859 1342.11584
1081.4474 1320.24353
1081.6088 1344.34813
1081.7702 1328.41493
1081.9316 1327.51382
1082.0930 1330.64722
1082.2544 1329.60275
1082.4158 1320.07970
1082.5771 1331.15921
1082.7385 1320.83745
1082.8998 1323.25405
1083.0611 1310.96624
1083.2224 1318.01125
1083.3837 1316.57767
1083.5449 1310.67952
1083.7062 1305.88727
1083.8674 1306.44023
1084.0286 1305.00665
1084.1898 1313.75147
1084.3510 1297.08101
1084.5122 1312.80941
1084.6734 1293.59946
1084.8345 1305.41624
1084.9956 1284.67032
1085.1567 1301.77086
1085.3178 1286.37013
1085.4789 1305.90775
1085.6400 1293.49706
1085.8010 1294.15241
1085.9621 1288.19282
1086.1231 1293.82474
1086.2841 1273.48841
1086.4451 1287.37364
1086.6061 1284.50648
1086.7670 1286.84116
1086.9280 1275.14726
1087.0889 1282.95002
1087.2498 1284.97751
1087.4107 1283.62585
1087.5716 1282.51995
1087.7325 1263.76056
1087.8933 1267.34450
1088.0542 1295.23784
1088.2150 1265.76757
1088.3758 1282.66331
1088.5366 1266.64819
1088.6974 1275.74117
1088.8582 1261.34395
1089.0189 1268.59376
1089.1796 1259.95133
1089.3404 1273.09929
1089.5011 1260.15613
1089.6618 1277.64578
1089.8224 1263.94487
1089.9831 1278.54689
1090.1438 1256.59267
1090.3044 1276.31460
1090.4650 1268.34801
1090.6256 1264.84598
1090.7862 1260.17661
1090.9468 1258.00576
1091.1073 1256.14211
1091.2679 1259.43934
1091.4284 1265.03030
1091.5889 1272.50538
1091.7494 1261.46683
1091.9099 1259.84894
1092.0703 1248.68751
1092.2308 1261.73307
1092.3912 1254.38086
1092.5516 1265.43989
1092.7121 1250.22348
1092.8724 1258.62015
1093.0328 1249.13806
1093.1932 1256.26499
1093.3535 1251.26795
1093.5139 1259.50078
1093.6742 1258.16960
1093.8345 1263.04377
1093.9948 1256.08067
1094.1550 1255.42532
1094.3153 1245.02164
1094.4755 1255.81444
1094.6358 1258.76351
1094.7960 1260.72956
1094.9562 1246.88529
1095.1163 1264.04727
1095.2765 1249.65005
1095.4367 1253.13160
1095.5968 1252.47625
1095.7569 1264.47735
1095.9170 1250.57164
1096.0771 1261.26203
1096.2372 1251.41130
1096.3973 1264.70262
1096.5573 1245.26740
1096.7173 1258.25152
1096.8773 1254.89285
1097.0374 1253.17256
1097.1973 1252.84488
1097.3573 1254.05318
1097.5173 1248.19599
1097.6772 1253.13160
1097.8371 1239.94268
1097.9970 1256.81794
1098.1569 1250.32588
1098.3168 1254.99525
1098.4767 1243.73142
1098.6365 1259.80798
1098.7964 1248.60559
1098.9562 1259.27550
1099.1160 1243.34231
1099.2758 1258.29248
1099.4356 1248.95374
1099.5953 1258.64063
1099.7551 1250.34636
1099.9148 1264.62070
1100.0745 1253.95079
1100.2342 1248.60559
1100.3939 1247.00817
1100.5536 1266.27956
1100.7132 1252.27145
1100.8729 1253.68455
1101.0325 1249.85485
1101.1921 1255.11813
1101.3517 1240.80283
1101.5113 1260.09469
1101.6709 1249.30190
1101.8304 1246.10707
1101.9899 1244.89876
1102.1495 1259.21407
1102.3090 1252.68105
1102.4685 1250.32588
1102.6279 1251.04267
1102.7874 1257.37089
1102.9468 1247.23345
1103.1063 1253.80743
1103.2657 1247.56112
1103.4251 1257.61665
1103.5845 1247.45872
1103.7438 1258.27200
1103.9032 1247.23345
1104.0625 1257.43233
1104.2219 1249.19950
1104.3812 1247.31537
1104.5405 1248.05264
1104.6997 1261.20060
1104.8590 1255.44580
1105.0183 1259.17311
1105.1775 1250.57164
1105.3367 1258.16960
1105.4959 1252.94728
1105.6551 1262.53178
1105.8143 1245.36980
1105.9735 1252.31241
1106.1326 1243.97718
1106.2917 1260.72956
1106.4508 1249.97773
1106.6099 1255.91684
1106.7690 1243.01463
1106.9281 1256.20355
1107.0872 1244.01814
1107.2462 1258.68159
1107.4052 1242.56408
1107.5642 1253.58215
1107.7232 1252.08713
1107.8822 1256.51075
1108.0412 1241.62201
1108.2001 1253.56167
1108.3591 1250.34636
1108.5180 1250.44876
1108.6769 1254.48326
1108.8358 1250.61260
1108.9947 1243.13751
1109.1535 1260.87292
1109.3124 1245.79987
1109.4712 1254.21702
1109.6300 1254.19654
1109.7888 1252.27145
1109.9476 1245.92275
1110.1064 1257.41185
1110.2651 1251.08363
1110.4239 1253.84839
1110.5826 1241.39674
1110.7413 1251.67754
1110.9000 1248.17551
1111.0587 1256.14211
1111.2173 1250.20300
1111.3760 1250.34636
1111.5346 1256.96130
1111.6932 1257.67809
1111.8518 1242.95319
1112.0104 1250.53068
1112.1690 1251.77994
1112.3276 1252.74248
1112.4861 1235.51907
1112.6446 1253.66407
1112.8032 1256.38787
1112.9617 1245.98419
1113.1201 1239.81980
1113.2786 1253.66407
1113.4371 1247.90928
1113.5955 1249.17902
1113.7539 1240.00412
1113.9123 1259.62366
1114.0707 1252.45577
1114.2291 1257.65761
1114.3875 1247.72496
1114.5458 1250.79691
1114.7042 1241.49914
1114.8625 1253.09064
1115.0208 1247.78640
1115.1791 1256.46979
1115.3374 1245.59507
1115.4956 1254.66757
1115.6539 1243.69046
1115.8121 1255.03621
1115.9703 1248.91278
1116.1285 1254.33990
1116.2867 1238.87774
1116.4449 1244.50965
1116.6030 1242.80984
1116.7612 1256.08067
1116.9193 1245.45172
1117.0774 1251.84138
1117.2355 1249.99821
1117.3936 1257.67809
1117.5516 1248.62607
1117.7097 1252.02570
1117.8677 1246.72146
1118.0257 1256.08067
1118.1837 1252.70152
1118.3417 1256.38787
1118.4997 1247.23345
1118.6577 1250.05965
1118.8156 1247.70448
1118.9735 1250.96075
1119.1315 1246.25042
1119.2894 1253.74599
1119.4472 1244.55061
1119.6051 1250.81739
1119.7630 1243.11703
1119.9208 1256.51075
1120.0786 1238.73438
1120.2364 1261.01628
1120.3942 1247.39729
1120.5520 1249.60909
1120.7098 1245.94323
1120.8675 1252.14857
1121.0253 1247.90928
1121.1830 1262.14266
1121.3407 1248.50319
1121.4984 1260.27901
1121.6560 1251.18603
