# Averages = 100
# wavelength [µm]	intensity
446.8250 14.33578
447.0374 36746.70328
447.2498 1232.87719
447.4621 1219.68827
447.6745 1226.81520
447.8868 1238.87774
448.0992 1236.35873
448.3115 1240.16796
448.5238 1248.54415
448.7360 1241.19194
448.9483 1248.40079
449.1606 1239.18493
449.3728 1263.26904
449.5850 1239.73788
449.7972 1243.58806
450.0094 1241.58105
450.2216 1252.12809
450.4337 1246.59858
450.6459 1725.27031
450.8580 2082.64086
451.0701 2110.45228
451.2822 2137.91554
451.4943 2123.66167
451.7064 2108.89582
451.9184 2105.80339
452.1305 2195.72970
452.3425 2300.29898
452.5545 2202.61087
452.7665 2214.69389
452.9785 2296.85839
453.1905 2335.85172
453.4024 2294.91282
453.6143 2396.53303
453.8263 2397.18838
454.0382 2585.66295
454.2501 2388.75075
454.4619 2370.25759
454.6738 2492.00933
454.8856 2614.60074
455.0975 2420.39187
455.3093 2404.06956
455.5211 2488.79402
455.7329 2462.19091
455.9446 2514.02500
456.1564 2529.30285
456.3681 2625.63930
456.5798 2721.25896
456.7916 2654.55661
457.0033 2621.27712
457.2149 2588.30483
457.4266 2627.68726
457.6382 2675.60973
457.8499 2648.00311
458.0615 2754.53845
458.2731 2659.47174
458.4847 2773.46168
458.6963 2864.78061
458.9078 2892.91970
459.1194 3070.62195
459.3309 3073.26382
459.5424 2929.57834
459.7539 2819.45906
459.9654 2852.45183
460.1769 2898.75641
460.3883 2879.21879
460.5998 2736.92592
460.8112 2726.39936
461.0226 2784.54119
461.2340 2868.40551
461.4454 2847.63911
461.6567 2813.21275
461.8681 2825.93064
462.0794 2786.83492
462.2907 2913.58370
462.5020 3162.28903
462.7133 3256.43415
462.9246 3015.87974
463.1359 2891.21988
463.3471 2756.77073
463.5583 2831.68543
463.7696 3231.14174
463.9808 3056.30664
464.1919 2996.58787
464.4031 2971.09066
464.6143 3010.94414
464.8254 2935.74272
465.0365 2880.38613
465.2476 3138.75787
465.4587 3314.35071
465.6698 2888.70088
465.8809 2969.67757
466.0919 2950.59050
466.3030 3007.54451
466.5140 3045.98488
466.7250 2964.10709
466.9360 3090.61012
467.1469 3028.00372
467.3579 2820.76976
467.5688 2826.66791
467.7798 3070.02803
467.9907 3162.10471
468.2016 3072.40368
468.4125 3022.63804
468.6233 2876.37211
468.8342 2905.24847
469.0450 3087.16953
469.2559 3186.57794
469.4667 3129.11193
469.6775 2873.50495
469.8882 3036.03175
470.0990 3003.75577
470.3098 3296.69722
470.5205 3109.69719
470.7312 3199.43918
470.9419 3405.54675
471.1526 3298.74518
471.3633 3022.41276
471.5739 3047.80757
471.7846 3046.33304
471.9952 2963.12407
472.2058 3072.81327
472.4164 3062.45055
472.6270 3033.55371
472.8376 3160.01578
473.0481 3358.40251
473.2587 3425.55541
473.4692 3334.01121
473.6797 3232.86203
473.8902 2993.33160
474.1007 2962.83735
474.3111 2995.66629
474.5216 2926.30159
474.7320 3046.98839
474.9424 3196.94066
475.1528 3269.09060
475.3632 3144.20546
475.5736 3082.58208
475.7840 3090.58964
475.9943 3130.27927
476.2046 3159.21707
476.4149 3225.40742
476.6252 3246.97253
476.8355 3361.41303
477.0458 3429.50799
477.2561 3413.98439
477.4663 3257.41717
477.6765 3277.03672
477.8867 3292.04833
478.0969 3286.45737
478.3071 3268.43525
478.5173 3373.86468
478.7274 3329.79239
478.9375 3395.51171
479.1477 3369.19531
479.3578 3499.63044
479.5679 3454.71848
479.7779 3476.24264
479.9880 3483.96348
480.1980 3526.80698
480.4081 3529.42838
480.6181 3406.71410
480.8281 3527.79001
481.0381 3464.20058
481.2480 3461.96829
481.4580 3538.41897
481.6679 3509.84980
481.8778 3456.93029
482.0877 3471.94190
482.2976 3378.67740
482.5075 3470.48784
482.7174 3551.11637
482.9272 3601.31209
483.1371 3485.06938
483.3469 3528.34296
483.5567 3638.76944
483.7665 3522.73153
483.9762 3581.75399
484.1860 3719.39797
484.3957 3709.89539
484.6055 3570.94071
484.8152 3656.11573
485.0249 3761.66804
485.2346 3753.74240
485.4442 3741.14739
485.6539 3775.34847
485.8635 3765.57966
486.0732 3648.25153
486.2828 3672.37660
486.4924 3668.34210
486.7019 3793.24772
486.9115 3734.69629
487.1210 3745.05901
487.3306 3881.04414
487.5401 3849.44398
487.7496 3902.58877
487.9591 3950.30644
488.1686 3891.44782
488.3780 3842.41945
488.5875 3927.57399
488.7969 4027.57630
489.0063 4002.57060
489.2157 4042.15784
489.4251 3990.05752
489.6345 3972.24019
489.8438 4062.35081
490.0531 3899.20962
490.2625 3972.42450
490.4718 4062.96520
490.6811 4130.73249
490.8903 4141.87344
491.0996 4181.68595
491.3089 4172.04002
491.5181 4220.14680
491.7273 4238.12797
491.9365 4209.21065
492.1457 4296.47460
492.3549 4303.43769
492.5640 4227.78573
492.7732 4296.78180
492.9823 4351.44208
493.1914 4464.92003
493.4005 4448.74108
493.6096 4403.54241
493.8187 4366.39225
494.0277 4457.87502
494.2368 4450.68665
494.4458 4507.62018
494.6548 4559.37235
494.8638 4606.31179
495.0728 4588.00295
495.2817 4593.08191
495.4907 4627.83594
495.6996 4649.29866
495.9085 4650.67080
496.1174 4736.72644
496.3263 4719.44159
496.5352 4747.76499
496.7440 4847.13244
496.9529 4856.51213
497.1617 4816.35147
497.3705 4846.82524
497.5793 4957.68179
497.7881 4869.84441
497.9969 4970.74783
498.2056 5018.05591
498.4144 5043.92175
498.6231 5083.32467
498.8318 5080.33464
499.0405 5113.42981
499.2492 5113.26598
499.4578 5156.51908
499.6665 5165.48918
499.8751 5280.07303
500.0837 5288.59258
500.2923 5297.41933
500.5009 5331.41561
500.7095 5446.10186
500.9180 5395.51703
501.1266 5455.15388
501.3351 5474.40479
501.5436 5550.56874
501.7521 5539.01820
501.9606 5611.45485
502.1691 5659.17253
502.3775 5622.24765
502.5860 5683.78911
502.7944 5726.05919
503.0028 5787.90784
503.2112 5804.33255
503.4196 5830.46463
503.6279 5880.08692
503.8363 5838.47219
504.0446 6006.05747
504.2529 5967.22799
504.4612 6035.91686
504.6695 6126.33468
504.8778 6099.69060
505.0860 6122.89409
505.2943 6120.17029
505.5025 6229.18367
505.7107 6233.56632
505.9189 6318.43415
506.1271 6361.11382
506.3353 6354.76511
506.5434 6335.92380
506.7516 6467.01428
506.9597 6485.40504
507.1678 6555.52749
507.3759 6557.18634
507.5840 6593.43539
507.7920 6669.29215
508.0001 6674.59639
508.2081 6785.69870
508.4161 6747.56552
508.6241 6953.52974
508.8321 6924.44858
509.0401 6877.48866
509.2480 7011.22102
509.4560 6991.10996
509.6639 7087.01634
509.8718 7123.75690
510.0797 7235.45311
510.2876 7232.74980
510.4955 7329.57776
510.7033 7377.99174
510.9112 7410.73876
511.1190 7523.97095
511.3268 7478.48557
511.5346 7552.39676
511.7424 7593.56093
511.9501 7712.44552
512.1579 7733.86727
512.3656 7779.84417
512.5733 7752.03275
512.7810 7878.53578
512.9887 7947.94144
513.1964 7986.23846
513.4040 8012.24766
513.6117 8079.93303
513.8193 8196.31909
514.0269 8202.29916
514.2345 8312.39796
514.4421 8258.67974
514.6497 8256.54985
514.8572 8437.83605
515.0647 8476.80889
515.2723 8565.62930
515.4798 8637.14437
515.6873 8695.88011
515.8947 8784.20900
516.1022 8734.21808
516.3097 8807.37153
516.5171 8934.38655
516.7245 8986.34352
516.9319 9063.55194
517.1393 9093.75948
517.3467 9106.94840
517.5540 9109.30356
517.7614 9342.58768
517.9687 9364.58287
518.1760 9402.65460
518.3833 9537.02183
518.5906 9542.14176
518.7978 9706.06118
519.0051 9662.21416
519.2123 9842.96789
519.4196 9662.80808
519.6268 9847.73965
519.8340 9902.11322
520.0411 9931.25582
520.2483 10174.18587
520.4554 10115.08149
520.6626 10404.78715
520.8697 10315.80291
521.0768 10520.08779
521.2839 10484.59650
521.4909 10525.02340
521.6980 10661.76627
521.9050 10830.41650
522.1121 10754.37542
522.3191 10988.90880
522.5261 10953.25366
522.7331 11014.44697
522.9400 11191.08427
523.1470 11245.41689
523.3539 11354.04115
523.5608 11360.75849
523.7677 11361.70055
523.9746 11509.89157
524.1815 11783.07012
524.3884 11699.86115
524.5952 11704.51004
524.8020 12012.58598
525.0089 11925.89546
525.2157 12051.96842
525.4225 12105.15417
525.6292 12161.35043
525.8360 12241.85608
526.0427 12323.73387
526.2494 12496.31620
526.4562 12482.82008
526.6629 12588.06520
526.8695 12605.55485
527.0762 12871.97511
527.2829 12896.07970
527.4895 13059.87624
527.6961 13162.72523
527.9027 13294.55298
528.1093 13357.81473
528.3159 13413.23277
528.5224 13354.51750
528.7290 13731.22088
528.9355 13558.78191
529.1420 13921.35429
529.3485 13805.09111
529.5550 14032.51804
529.7615 13988.99870
529.9680 14126.29453
530.1744 14163.58804
530.3808 14357.55116
530.5872 14294.20748
530.7936 14469.08354
531.0000 14518.50102
531.2064 14681.70365
531.4127 14759.71078
531.6191 14911.30143
531.8254 14996.74268
532.0317 15166.39642
532.2380 15131.84718
532.4443 15297.11826
532.6505 15120.76767
532.8568 15405.74252
533.0630 15700.81386
533.2692 15652.07220
533.4754 15778.30900
533.6816 15981.11934
533.8878 15859.59288
534.0939 16181.92268
534.3001 16216.06232
534.5062 16309.22442
534.7123 16246.96617
534.9184 16339.65723
535.1245 16503.47425
535.3306 16528.72571
535.5366 16867.64406
535.7426 16877.14663
535.9487 16968.89563
536.1547 16938.27850
536.3607 17227.71792
536.5666 17128.86247
536.7726 17243.15961
536.9785 17486.58117
537.1845 17674.80998
537.3904 17525.34922
537.5963 17585.66190
537.8022 17792.60914
538.0080 17948.86916
538.2139 18066.25873
538.4197 18191.86065
538.6256 18141.09150
538.8314 18213.20048
539.0372 18350.59871
539.2430 18739.05742
539.4487 18528.62863
539.6545 18866.01100
539.8602 18782.26956
540.0659 18957.30945
540.2716 19368.54157
540.4773 19405.03638
540.6830 19481.24130
540.8887 19612.49561
541.0943 19388.01776
541.2999 19502.35585
541.5056 19604.52901
541.7112 19818.88990
541.9167 19688.06566
542.1223 19726.03500
542.3279 20128.60422
542.5334 20205.17777
542.7389 20402.60196
542.9444 20464.10246
543.1499 20582.67985
543.3554 20538.30037
543.5609 20897.26833
543.7663 20926.18565
543.9718 20736.21607
544.1772 20931.55133
544.3826 20958.37972
544.5880 21539.12221
544.7934 21395.88728
544.9987 21444.44462
545.2041 21858.85110
545.4094 21793.91001
545.6147 21796.10133
545.8200 22079.11013
546.0253 22067.37527
546.2306 22396.75009
546.4358 22157.09678
546.6411 22490.48562
546.8463 22353.02595
547.0515 22655.34710
547.2567 22812.59014
547.4619 22904.25722
547.6670 22978.86472
547.8722 23129.26755
548.0773 23387.31161
548.2824 23377.56328
548.4876 23511.58236
548.6926 23626.43244
548.8977 23703.72278
549.1028 23845.46270
549.3078 24012.82271
549.5129 24000.76017
549.7179 24120.11579
549.9229 24269.76087
550.1279 24207.56406
550.3328 24555.88258
550.5378 24240.16772
550.7427 24627.56149
550.9476 24803.72776
551.1526 24286.77949
551.3575 24882.36976
551.5623 24966.58223
551.7672 24867.09191
551.9720 24951.18151
552.1769 25065.39673
552.3817 25250.55358
552.5865 25158.53835
552.7913 25367.51308
552.9961 25212.70712
553.2008 25457.74658
553.4056 25771.88451
553.6103 25665.36965
553.8150 25921.67294
554.0197 25995.50221
554.2244 25909.40561
554.4291 25977.05002
554.6337 26379.63971
554.8384 26165.79082
555.0430 26398.15335
555.2476 26181.35538
555.4522 26240.62359
555.6568 26556.58421
555.8613 26674.85441
556.0659 26851.04116
556.2704 26527.11394
556.4750 26867.46587
556.6795 27035.27643
556.8839 26781.18495
557.0884 27258.27975
557.2929 27205.25783
557.4973 27014.57146
557.7018 27103.16659
557.9062 27289.38839
558.1106 27258.62790
558.3150 27088.93321
558.5193 27489.53638
558.7237 27551.22120
558.9280 27321.97157
559.1323 27548.25164
559.3367 27445.46409
559.5410 27645.63255
559.7452 27413.61817
559.9495 27722.90242
560.1537 27733.01938
560.3580 27641.55710
560.5622 27884.65099
560.7664 28064.68792
560.9706 28047.38258
561.1748 28162.00740
561.3789 28156.19116
561.5831 28186.99261
561.7872 28089.32498
561.9913 28387.38636
562.1954 28306.96262
562.3995 28441.20697
562.6036 28475.36709
562.8076 28272.90490
563.0117 28564.16702
563.2157 28439.42524
563.4197 28664.02598
563.6237 28870.95274
563.8277 28558.28935
564.0316 28317.81686
564.2356 28740.43569
564.4395 28718.37907
564.6434 28906.07540
564.8473 29054.65553
565.0512 29049.10554
565.2551 29033.74577
565.4590 29094.20181
565.6628 29292.28135
565.8666 29504.06180
566.0705 29317.43040
566.2743 29314.99332
566.4780 29375.49032
566.6818 29303.36086
566.8856 29811.19567
567.0893 29403.91612
567.2930 29547.70401
567.4967 29331.74571
567.7004 29547.64257
567.9041 29700.33912
568.1078 29705.80720
568.3114 29945.93153
568.5151 29861.18659
568.7187 29469.75832
568.9223 29691.32806
569.1259 29877.42698
569.3295 30182.92248
569.5330 30159.57563
569.7366 30277.53863
569.9401 30368.30461
570.1436 30366.37952
570.3471 30439.32817
570.5506 30449.64993
570.7541 30417.37394
570.9575 30417.88593
571.1609 30116.24062
571.3644 30620.38908
571.5678 30592.55719
571.7712 30948.53512
571.9746 30856.62228
572.1779 30641.29884
572.3813 30525.24045
572.5846 30720.86243
572.7879 30647.64755
572.9912 31230.82713
573.1945 31067.52210
573.3978 30671.36302
573.6010 31040.79611
573.8043 31602.34914
574.0075 30831.94425
574.2107 31022.36439
574.4139 30984.64080
574.6171 31137.86983
574.8203 30903.29549
575.0234 31335.53977
575.2266 30825.75939
575.4297 30980.85206
575.6328 31080.11711
575.8359 31384.19951
576.0390 30765.32383
576.2420 30828.66750
576.4451 30618.34111
576.6481 30993.38563
576.8512 31431.32327
577.0542 30793.01237
577.2571 31273.52728
577.4601 31295.46102
577.6631 31103.77115
577.8660 30990.25224
578.0689 30909.88995
578.2719 31111.61487
578.4748 30901.14512
578.6776 30906.28552
578.8805 30965.18510
579.0834 30509.43014
579.2862 30944.88973
579.4890 31300.58094
579.6918 31156.17867
579.8946 30827.09057
580.0974 31223.96643
580.3002 30948.82183
580.5029 30751.82772
580.7057 31158.84103
580.9084 30663.62170
581.1111 31252.33080
581.3138 31016.52768
581.5164 30750.35318
581.7191 30625.75476
581.9217 30751.64340
582.1244 30822.52360
582.3270 30824.53061
582.5296 30776.66958
582.7322 31032.35848
582.9347 30889.34882
583.1373 30617.37857
583.3398 30889.71745
583.5424 30643.73593
583.7449 30639.80383
583.9474 30429.37504
584.1498 30386.08098
584.3523 30817.21936
584.5548 30372.15479
584.7572 30514.07902
584.9596 30704.11005
585.1620 31225.15425
585.3644 30379.95755
585.5668 30492.43200
585.7691 30858.19921
585.9715 30636.89571
586.1738 30887.36229
586.3761 30894.40730
586.5784 31125.29530
586.7807 31003.50260
586.9830 30916.30009
587.1852 30875.95510
587.3875 30640.11102
587.5897 31100.47392
587.7919 30881.99661
587.9941 30531.52772
588.1963 30679.30914
588.3984 31099.51137
588.6006 30504.33069
588.8027 31105.88055
589.0048 30740.03142
589.2069 30925.12683
589.4090 30899.36339
589.6111 31107.58037
589.8131 31007.96717
590.0152 31190.66646
590.2172 31058.75679
590.4192 31418.66682
590.6212 31150.44435
590.8232 30903.80748
591.0252 31320.95823
591.2271 31401.79156
591.4291 31380.41077
591.6310 31213.00980
591.8329 31262.83688
592.0348 31516.37541
592.2367 31591.80210
592.4385 31873.35684
592.6404 31946.08021
592.8422 32011.73809
593.0440 32119.93228
593.2458 32356.39075
593.4476 32477.48715
593.6494 32498.29451
593.8512 32719.39321
594.0529 33065.17226
594.2546 32925.37791
594.4563 32886.26171
594.6580 32624.77706
594.8597 32542.34632
595.0614 32664.67149
595.2630 32912.00468
595.4647 32861.62464
595.6663 32560.12268
595.8679 32896.41963
596.0695 33363.90946
596.2711 33227.18707
596.4727 33228.86640
596.6742 33546.44491
596.8757 33739.19973
597.0773 33622.11736
597.2788 33377.87661
597.4802 33649.66254
597.6817 34104.78263
597.8832 33816.20336
598.0846 34138.57412
598.2860 34064.45813
598.4875 33800.55688
598.6889 34374.62300
598.8902 34399.62870
599.0916 34425.37166
599.2930 34092.88394
599.4943 34543.84665
599.6956 34625.84732
599.8969 34400.20213
600.0982 34123.35771
600.2995 34328.62562
600.5008 35053.42224
600.7020 34454.88289
600.9032 34967.85810
601.1045 34734.36919
601.3057 34435.93918
601.5068 35102.61445
601.7080 35071.01429
601.9092 34876.60062
602.1103 35487.07962
602.3115 35358.97918
602.5126 35606.86531
602.7137 35530.23032
602.9147 35519.86760
603.1158 35641.70126
603.3169 35841.31678
603.5179 35705.20877
603.7189 35558.90189
603.9199 35746.63918
604.1209 35819.23967
604.3219 35799.78397
604.5229 35886.41305
604.7238 36038.45425
604.9247 36062.90700
605.1257 36232.29449
605.3266 36404.95874
605.5275 36049.24704
605.7283 36197.33566
605.9292 36377.18828
606.1300 35851.53614
606.3309 36100.67154
606.5317 36346.85786
606.7325 36524.00716
606.9332 36538.48630
607.1340 36801.07685
607.3348 36634.39267
607.5355 36122.35953
607.7362 37023.30194
607.9369 36393.44915
608.1376 36648.64654
608.3383 36379.44105
608.5390 37206.06267
608.7396 36865.13731
608.9402 37360.56143
609.1409 37314.19542
609.3415 37017.36283
609.5421 36914.71864
609.7426 37229.55287
609.9432 36833.00468
610.1437 36741.68576
610.3443 37553.97160
610.5448 37389.11012
610.7453 37713.36501
610.9457 37401.41841
611.1462 37546.08692
611.3467 37480.38809
611.5471 37798.41715
611.7475 37292.93751
611.9479 38031.25072
612.1483 37495.07202
612.3487 38031.47600
612.5491 37923.32277
612.7494 38469.82323
612.9497 37840.56435
613.1501 38251.85791
613.3504 38031.90607
613.5506 38633.66073
613.7509 38240.77840
613.9512 38262.50735
614.1514 38447.56181
614.3516 38714.08446
614.5519 38607.52865
614.7521 38741.03573
614.9522 38451.61679
615.1524 38481.96768
615.3526 38972.06708
615.5527 39538.47380
615.7528 39109.85442
615.9529 39091.56606
616.1530 39440.51946
616.3531 39439.18828
616.5532 39375.20973
616.7532 38925.70107
616.9532 39271.00908
617.1533 39081.59245
617.3533 39434.68275
617.5532 39170.76101
617.7532 39373.32560
617.9532 38529.97207
618.1531 39536.63063
618.3530 39012.76022
618.5530 39363.47487
618.7528 39519.91920
618.9527 39617.62779
619.1526 39192.89955
619.3524 39289.29744
619.5523 39502.36811
619.7521 39643.04309
619.9519 39690.24877
620.1517 39591.31140
620.3515 39917.49138
620.5512 40170.57936
620.7510 39985.40202
620.9507 39651.48072
621.1504 39737.67972
621.3501 39805.34461
621.5498 40071.51911
621.7495 40136.29636
621.9492 39741.38655
622.1488 39544.74059
622.3484 39645.35729
622.5480 39610.11175
622.7476 40364.89063
622.9472 39646.27888
623.1468 39893.59158
623.3463 40934.20546
623.5459 40666.29019
623.7454 40393.64411
623.9449 40364.21480
624.1444 40436.97913
624.3439 40743.23238
624.5433 40601.18527
624.7428 40413.87804
624.9422 40463.23409
625.1416 40617.52806
625.3410 40633.95277
625.5404 40502.73941
625.7398 40539.62332
625.9391 40716.52687
626.1385 40199.35332
626.3378 40248.21785
626.5371 40972.99399
626.7364 40356.18676
626.9357 40801.45613
627.1350 40721.62631
627.3342 40422.99150
627.5335 40268.20603
627.7327 40430.65091
627.9319 40458.48280
628.1311 41486.39928
628.3303 40589.83952
628.5294 40891.15716
628.7286 41032.38509
628.9277 41490.08562
629.1268 41137.24109
629.3259 41807.82797
629.5250 41714.66587
629.7241 41629.18366
629.9231 40929.57705
630.1222 41642.90505
630.3212 41469.38066
630.5202 41101.07396
630.7192 41636.96594
630.9182 41118.46121
631.1171 41456.68325
631.3161 41210.64029
631.5150 40967.85359
631.7140 41300.21844
631.9129 41502.37343
632.1118 41980.02119
632.3106 41693.91995
632.5095 41457.29764
632.7083 41399.70876
632.9072 41455.76167
633.1060 41504.83100
633.3048 41676.40982
633.5036 41065.41882
633.7023 41416.52258
633.9011 41914.87530
634.0998 41717.77879
634.2986 41843.64695
634.4973 41628.42591
634.6960 41769.49000
634.8947 41638.17424
635.0933 41904.14394
635.2920 41588.40860
635.4906 41284.63340
635.6892 41983.78945
635.8878 42172.75553
636.0864 42131.16128
636.2850 41768.32266
636.4836 41852.35081
636.6821 41935.00683
636.8806 42096.16149
637.0792 42016.96654
637.2777 42016.86414
637.4761 42097.18548
637.6746 41879.32256
637.8731 42249.77963
638.0715 41739.52822
638.2699 42444.68482
638.4683 42064.06982
638.6667 41257.64117
638.8651 42047.27648
639.0635 42295.40837
639.2618 42348.55316
639.4602 42241.38296
639.6585 42150.49410
639.8568 42236.83647
640.0551 42343.47420
640.2534 42254.81763
640.4516 42005.43648
640.6499 42250.80361
640.8481 42971.93437
641.0463 42730.47885
641.2445 42953.50265
641.4427 42782.10815
641.6409 42501.37259
641.8390 42730.33550
642.0372 43136.71394
642.2353 42991.16480
642.4334 42365.75610
642.6315 42584.68396
642.8296 42614.87102
643.0277 42396.45515
643.2257 43103.90548
643.4237 43112.19975
643.6218 43015.35131
643.8198 42742.82811
644.0178 42921.34954
644.2157 42852.39443
644.4137 42764.98713
644.6116 43475.24317
644.8096 43741.49959
645.0075 42620.33910
645.2054 43369.50654
645.4033 43224.28508
645.6011 43187.05301
645.7990 43163.68568
645.9968 43349.86652
646.1947 43146.35987
646.3925 43390.58014
646.5903 43156.64067
646.7881 43423.14285
646.9858 43233.09135
647.1836 43128.58350
647.3813 42912.25656
647.5790 43312.47061
647.7767 43924.38320
647.9744 43042.48689
648.1721 43082.48372
648.3698 43872.09855
648.5674 43009.00260
648.7650 43417.92053
648.9627 43104.66323
649.1603 43784.13830
649.3578 43447.90279
649.5554 43549.13388
649.7530 44054.55209
649.9505 43013.89725
650.1480 43612.55947
650.3455 43985.59698
650.5430 43295.26768
650.7405 43451.50721
650.9380 43248.28727
651.1354 43563.89974
651.3329 43266.49372
651.5303 43751.32984
651.7277 43829.91040
651.9251 43999.35933
652.1225 43725.75071
652.3198 43636.35687
652.5172 43843.24267
652.7145 44103.33471
652.9118 43870.95169
653.1091 43916.12988
653.3064 44152.91603
653.5037 43904.80462
653.7009 43591.42444
653.8982 43914.10239
654.0954 44335.86108
654.2926 44444.85397
654.4898 44217.46800
654.6870 44227.97408
654.8841 44865.65011
655.0813 44367.46124
655.2784 44488.16851
655.4755 44824.52690
655.6726 44944.59931
655.8697 44305.69450
656.0668 44768.49448
656.2639 44403.09589
656.4609 44457.98145
656.6579 44531.17586
656.8550 44634.10677
657.0520 44423.84182
657.2490 43893.49983
657.4459 44512.15023
657.6429 44745.31147
657.8398 44504.77754
658.0367 44887.97297
658.2337 44654.97557
658.4305 44846.91120
658.6274 45020.96806
658.8243 44858.37982
659.0211 45165.14506
659.2180 45126.19270
659.4148 45299.00030
659.6116 45586.24840
659.8084 45489.33852
660.0052 45862.08931
660.2019 45576.39767
660.3987 45251.34407
660.5954 45327.30323
660.7921 45472.05366
660.9888 45079.80621
661.1855 45394.78380
661.3822 45711.13353
661.5788 45080.93259
661.7755 45418.04873
661.9721 44995.85997
662.1687 45453.80626
662.3653 45368.85652
662.5619 45631.38563
662.7584 45216.28284
662.9550 45262.54646
663.1515 45564.92904
663.3480 45297.73056
663.5445 46091.35941
663.7410 45424.27455
663.9375 45558.94897
664.1340 45634.10943
664.3304 45961.23148
664.5268 45563.06539
664.7233 46004.87369
664.9197 45868.72473
665.1160 45758.01154
665.3124 45639.04503
665.5088 45703.28981
665.7051 45735.95491
665.9014 45743.34808
666.0977 45578.17940
666.2940 45511.49754
666.4903 45850.90740
666.6866 45850.45685
666.8828 45583.74988
667.0791 45537.17907
667.2753 45796.08328
667.4715 45651.06661
667.6677 46094.41088
667.8639 46352.37303
668.0600 45568.49251
668.2562 45940.73131
668.4523 45735.54532
668.6484 45988.61282
668.8445 45523.31432
669.0406 46590.79755
669.2367 46482.05041
669.4327 46522.35443
669.6287 46329.72249
669.8248 46115.44352
670.0208 46284.99486
670.2168 46219.68513
670.4128 46282.08674
670.6087 46220.44288
670.8047 46147.18704
671.0006 46821.58315
671.1965 45759.54751
671.3924 46483.85262
671.5883 45953.65399
671.7842 46150.34091
671.9801 45520.42668
672.1759 45984.53736
672.3717 45821.41665
672.5675 46630.50766
672.7633 46431.71134
672.9591 46539.14778
673.1549 46995.45570
673.3506 46335.06769
673.5464 46028.44581
673.7421 46514.85887
673.9378 46361.07690
674.1335 46145.30291
674.3292 46411.00637
674.5249 45861.16772
674.7205 45099.93774
674.9161 45535.29494
675.1118 45489.19516
675.3074 45523.99015
675.5030 45446.49501
675.6985 45986.01190
675.8941 45878.30922
676.0896 45934.99700
676.2852 46159.43389
676.4807 45889.77785
676.6762 46070.90020
676.8717 46549.75626
677.0671 46354.62579
677.2626 46900.81906
677.4580 46425.52647
677.6534 46521.26901
677.8489 46035.10171
678.0442 46146.44977
678.2396 45431.95443
678.4350 45705.33778
678.6303 45829.97716
678.8257 45690.03945
679.0210 46054.53693
679.2163 45729.38093
679.4116 45980.64622
679.6069 45739.92797
679.8021 45277.45567
679.9974 45246.53134
680.1926 45688.66732
680.3878 45570.99103
680.5830 45499.00493
680.7782 45626.34763
680.9734 45386.14137
681.1685 45443.42306
681.3636 45354.31594
681.5588 45409.65205
681.7539 45289.06765
681.9490 45305.12373
682.1441 45261.93207
682.3391 44906.03606
682.5342 45568.47203
682.7292 45709.53612
682.9242 45846.25851
683.1192 45473.67156
683.3142 45991.97149
683.5092 46011.24287
683.7041 46212.18957
683.8991 46118.26972
684.0940 45964.16007
684.2889 45406.29338
684.4838 45770.29935
684.6787 45529.47870
684.8736 44647.93056
685.0684 45466.25791
685.2633 45039.82986
685.4581 45185.17420
685.6529 45559.74768
685.8477 45880.80774
686.0425 45858.38249
686.2372 45475.76048
686.4320 45225.84686
686.6267 45394.98860
686.8214 45063.25862
687.0161 45031.94518
687.2108 45185.74763
687.4055 44976.30187
687.6002 45325.56246
687.7948 45228.09962
687.9894 45657.33339
688.1841 45243.99186
688.3787 45401.93121
688.5732 45014.10737
688.7678 45319.41855
688.9624 45102.25194
689.1569 45015.23375
689.3514 44749.36645
689.5459 44382.41141
689.7404 44534.51405
689.9349 44630.23611
690.1294 44661.30379
690.3238 44701.83309
690.5182 44781.37620
690.7127 44954.83915
690.9071 44857.64256
691.1015 44467.42259
691.2958 44630.35898
691.4902 45017.28172
691.6845 45854.02031
691.8789 44986.80795
692.0732 44919.47073
692.2675 44745.22955
692.4618 44911.09454
692.6560 44705.43752
692.8503 45345.81687
693.0445 45281.08057
693.2387 44587.43356
693.4329 45033.13300
693.6271 44898.88865
693.8213 45036.16399
694.0155 45224.57712
694.2096 44866.44882
694.4038 44496.91334
694.5979 44673.05913
694.7920 44598.47211
694.9861 44540.24836
695.1801 44512.19119
695.3742 44341.28820
695.5682 44407.19183
695.7623 44308.27494
695.9563 44044.74232
696.1503 44410.98057
696.3443 43715.96142
696.5382 44197.62319
696.7322 44218.84014
696.9261 44584.60736
697.1201 44073.88492
697.3140 44414.15492
697.5079 44606.35679
697.7017 43870.86977
697.8956 43903.08432
698.0894 43700.23302
698.2833 44190.88537
698.4771 44237.66098
698.6709 44617.08815
698.8647 43909.26919
699.0585 44495.97127
699.2522 43605.41206
699.4460 43998.47871
699.6397 44040.17535
699.8334 43756.06065
700.0271 43710.41142
700.2208 43848.89507
700.4144 44108.02455
700.6081 43920.32822
700.8017 43706.92987
700.9954 44240.34382
701.1890 44026.04437
701.3826 43526.50383
701.5761 43625.70743
701.7697 43725.77119
701.9632 43340.22059
702.1568 43576.41283
702.3503 43483.61936
702.5438 43195.10152
702.7373 42694.35269
702.9308 43459.61717
703.1242 43590.78957
703.3177 43241.24226
703.5111 43541.47448
703.7045 43596.36004
703.8979 43677.82824
704.0913 43571.39530
704.2847 43777.29808
704.4780 44069.82994
704.6713 43035.23708
704.8647 43314.51858
705.0580 43173.00394
705.2513 42614.46143
705.4445 43210.93232
705.6378 43220.23010
705.8311 42419.24904
706.0243 42447.36765
706.2175 43079.84184
706.4107 42843.40385
706.6039 42800.58083
706.7971 42830.76788
706.9902 43004.86571
707.1834 42818.07048
707.3765 42428.66970
707.5696 42498.87407
707.7627 42682.35159
707.9558 42724.39639
708.1489 42295.85893
708.3419 41889.56241
708.5349 42022.12742
708.7280 41931.13617
708.9210 42655.33888
709.1140 42506.41059
709.3069 42211.23686
709.4999 42044.79844
709.6929 42364.32252
709.8858 41990.89590
710.0787 42039.33036
710.2716 41347.97707
710.4645 42059.33902
710.6574 41998.88298
710.8502 42299.77055
711.0431 41850.40524
711.2359 41502.20960
711.4287 41511.05682
711.6215 41731.47970
711.8143 41686.77254
712.0071 41661.09101
712.1998 41440.46334
712.3925 41785.91471
712.5853 41990.77302
712.7780 41965.29629
712.9707 41667.86979
713.1633 41738.23800
713.3560 41685.89191
713.5487 41490.74097
713.7413 41720.54355
713.9339 41555.96878
714.1265 41273.59485
714.3191 41414.47462
714.5117 40908.27818
714.7042 41250.49376
714.8968 41352.11397
715.0893 41904.77881
715.2818 41824.19124
715.4743 41942.33856
715.6668 41500.69410
715.8592 41829.67980
716.0517 41532.88817
716.2441 41680.69007
716.4366 41307.79592
716.6290 41453.57034
716.8214 41542.59554
717.0137 41571.45142
717.2061 41463.31867
717.3984 41393.11430
717.5908 41058.16901
717.7831 40885.79148
717.9754 41322.70514
718.1677 40272.56820
718.3600 40945.32593
718.5522 40591.29358
718.7445 40609.23378
718.9367 40354.11832
719.1289 40557.42017
719.3211 40422.33615
719.5133 40537.51392
719.7054 40383.48619
719.8976 40666.57691
720.0897 40633.11310
720.2818 40555.06501
720.4740 40599.36257
720.6660 40655.92747
720.8581 40571.08013
721.0502 40240.18981
721.2422 40010.44868
721.4343 40314.85875
721.6263 40438.51511
721.8183 40309.69787
722.0103 40690.27191
722.2022 40491.59846
722.3942 40738.27629
722.5861 40398.41588
722.7781 40844.40203
722.9700 40511.36136
723.1619 40352.78714
723.3538 40094.80451
723.5456 40252.41619
723.7375 39955.64504
723.9293 40067.48461
724.1211 39777.08264
724.3129 39873.78773
724.5047 39394.07152
724.6965 39402.28388
724.8883 39673.14823
725.0800 39472.20153
725.2718 39805.77468
725.4635 39463.29287
725.6552 39293.00427
725.8469 39478.48880
726.0385 39900.26796
726.2302 39513.52954
726.4218 38843.31129
726.6135 38956.21581
726.8051 38951.01397
726.9967 39347.29592
727.1882 39474.45430
727.3798 39723.79449
727.5714 39486.12772
727.7629 39798.05384
727.9544 39750.13137
728.1459 39175.69662
728.3374 39016.89712
728.5289 39794.92045
728.7204 39290.97678
728.9118 39782.50976
729.1032 39994.14685
729.2946 39651.60360
729.4860 39021.15690
729.6774 39341.29537
729.8688 39392.39219
730.0602 39049.78750
730.2515 39268.18289
730.4428 39540.39889
730.6341 39272.38122
730.8254 39082.98507
731.0167 39503.33066
731.2080 39483.21960
731.3992 39344.26492
731.5905 39226.44528
731.7817 39260.05245
731.9729 38635.01239
732.1641 38899.52803
732.3553 38379.91740
732.5464 38836.83971
732.7376 38726.02412
732.9287 38810.76907
733.1198 38802.04472
733.3109 38879.04834
733.5020 38658.37971
733.6931 39149.64645
733.8841 39020.72682
734.0752 39334.65995
734.2662 38799.75099
734.4572 38747.99882
734.6482 38292.01858
734.8392 38292.36674
735.0302 38194.63767
735.2211 38057.48520
735.4120 37875.72797
735.6030 38348.72684
735.7939 38226.66790
735.9848 38244.56715
736.1756 37855.12541
736.3665 38063.71102
736.5574 37688.80987
736.7482 37697.82093
736.9390 37510.04267
737.1298 37841.73169
737.3206 37968.13232
737.5114 38256.54776
737.7021 37717.58383
737.8929 37737.98160
738.0836 37885.41487
738.2743 38116.99917
738.4650 38124.90433
738.6557 37782.01292
738.8463 37546.02548
739.0370 37452.57667
739.2276 37195.63851
739.4182 37245.13792
739.6088 37472.95396
739.7994 37244.66688
739.9900 37431.01156
740.1806 37365.04649
740.3711 37402.19664
740.5617 37732.22680
740.7522 37496.28032
740.9427 37457.57371
741.1332 37551.30924
741.3236 37184.41564
741.5141 37313.72439
741.7045 37664.43904
741.8949 37628.39479
742.0854 37416.28666
742.2758 37603.61437
742.4661 37028.05323
742.6565 36525.09258
742.8469 36780.63812
743.0372 37100.32605
743.2275 36769.88629
743.4178 36996.33019
743.6081 37084.59765
743.7984 37126.51957
743.9886 37125.33174
744.1789 36962.88686
744.3691 36694.21384
744.5593 36746.02745
744.7495 36415.75153
744.9397 36623.82516
745.1299 36408.48124
745.3200 35941.13477
745.5102 36224.79892
745.7003 36248.88304
745.8904 36404.95874
746.0805 36460.68397
746.2706 36310.91601
746.4607 36415.30098
746.6507 36437.27568
746.8408 36075.78872
747.0308 36464.65702
747.2208 36105.81194
747.4108 36229.89837
747.6007 36363.03682
747.7907 36718.42083
747.9806 36397.03310
748.1706 36356.68811
748.3605 36058.79058
748.5504 35972.34582
748.7403 36416.91887
748.9302 35909.84181
749.1200 36036.59060
749.3098 35922.25250
749.4997 35589.12990
749.6895 35879.08132
749.8793 35801.38139
750.0691 36247.67474
750.2588 35848.03411
750.4486 35666.11305
750.6383 35771.25577
750.8280 35217.46454
751.0177 35113.22293
751.2074 35154.28470
751.3971 35312.42885
751.5868 35275.48349
751.7764 35153.79319
751.9660 34929.29485
752.1557 35019.97891
752.3453 35120.59561
752.5348 35410.15792
752.7244 35650.71233
752.9140 35721.49013
753.1035 35456.05290
753.2930 35498.75304
753.4825 35034.58093
753.6720 35315.48032
753.8615 35273.43552
754.0510 34962.36955
754.2404 35002.55070
754.4299 34999.62210
754.6193 34975.31271
754.8087 34819.68757
754.9981 34966.54740
755.1875 34701.21257
755.3768 34507.43377
755.5662 34640.94085
755.7555 34693.98324
755.9448 34642.96834
756.1341 34610.24180
756.3234 34177.83368
756.5127 34200.75045
756.7019 34528.17969
756.8912 34679.46315
757.0804 34517.36642
757.2696 34521.83099
757.4588 34237.69581
757.6480 34012.60356
757.8371 33754.49806
758.0263 33857.71568
758.2154 33922.94349
758.4045 33569.73032
758.5936 33436.12084
758.7827 33810.96056
758.9718 33949.75140
759.1609 33692.83372
759.3499 33742.02593
759.5389 33246.74517
759.7280 33546.32204
759.9170 33722.01728
760.1059 33576.11998
760.2949 33479.51730
760.4839 33802.78916
760.6728 33611.85704
760.8617 33551.40100
761.0506 33203.88118
761.2395 32886.89658
761.4284 33217.99169
761.6173 33132.20228
761.8061 33139.67736
761.9950 33136.05246
762.1838 32835.18537
762.3726 33297.84199
762.5614 32893.04048
762.7502 33330.77332
762.9389 32562.37545
763.1277 32716.60798
763.3164 33173.14117
763.5051 32984.83044
763.6938 33305.74715
763.8825 32928.10171
764.0712 33456.17045
764.2598 32987.63616
764.4484 33237.91842
764.6371 33236.42340
764.8257 32983.80646
765.0143 33158.49819
765.2029 32757.11680
765.3914 32860.94881
765.5800 33108.81447
765.7685 32617.67061
765.9570 32721.33878
766.1455 32207.64678
766.3340 31927.58706
766.5225 32203.22317
766.7110 32205.33258
766.8994 31906.20626
767.0878 31658.38156
767.2762 31990.95121
767.4646 31919.84573
767.6530 31912.30921
767.8414 32029.96501
768.0298 31694.97877
768.2181 31559.09604
768.4064 31692.41880
768.5947 31718.05937
768.7830 31690.63707
768.9713 31625.47071
769.1596 31349.09732
769.3478 31239.38764
769.5360 31498.33281
769.7243 31406.91148
769.9125 31124.16892
770.1007 30828.62655
770.2888 30871.73629
770.4770 30966.98731
770.6651 30821.33578
770.8533 30649.47024
771.0414 30434.29016
771.2295 30619.61085
771.4176 30843.18760
771.6056 30901.55471
771.7937 30670.91247
771.9817 30407.78945
772.1698 30985.41903
772.3578 30907.80102
772.5458 30570.21385
772.7337 30128.38507
772.9217 30500.58291
773.1096 30216.67300
773.2976 30474.20507
773.4855 30748.77624
773.6734 30118.06331
773.8613 30204.79478
774.0492 30385.44611
774.2370 30152.96070
774.4249 30229.47281
774.6127 30445.00104
774.8005 30283.31391
774.9883 30293.51279
775.1761 30407.66657
775.3639 29882.17827
775.5516 29987.89441
775.7394 29768.00401
775.9271 29862.43585
776.1148 29882.69026
776.3025 29250.95334
776.4902 29397.75174
776.6778 29296.56160
776.8655 29646.04747
777.0531 29822.95101
777.2407 29906.81533
777.4283 29463.83969
777.6159 29522.71879
777.8035 29375.65416
777.9911 29213.43455
778.1786 29404.05948
778.3661 28886.53778
778.5536 29216.01499
778.7411 29260.88599
778.9286 29505.04482
779.1161 29252.28452
779.3036 28898.35456
779.4910 28950.10673
779.6784 29044.72289
779.8658 29247.10316
780.0532 28687.65953
780.2406 28991.47570
780.4280 28751.65856
780.6153 28907.89809
780.8026 28876.97377
780.9900 29091.17082
781.1773 28498.93921
781.3646 28888.29903
781.5518 28678.73039
781.7391 28445.99922
781.9263 28640.06474
782.1136 28467.70769
782.3008 28124.77532
782.4880 28318.98420
782.6752 28181.01255
782.8623 28164.83359
783.0495 28472.37706
783.2366 27885.18346
783.4237 28026.08371
783.6108 28345.50540
783.7979 28114.35116
783.9850 28158.01386
784.1721 28364.14191
784.3591 27911.56130
784.5462 27784.32100
784.7332 27955.98174
784.9202 28148.92087
785.1072 27690.11444
785.2941 27611.71819
785.4811 27494.24670
785.6681 27630.98958
785.8550 27671.88751
786.0419 27477.02329
786.2288 27354.39092
786.4157 27173.53480
786.6025 27139.98907
786.7894 27307.53339
786.9762 27232.88493
787.1631 26689.37451
787.3499 27007.01446
787.5367 27209.82480
787.7234 26824.88860
787.9102 27139.12892
788.0970 27153.46470
788.2837 27188.73073
788.4704 26604.03565
788.6571 26305.60564
788.8438 26327.62131
789.0305 26225.09999
789.2171 26223.15442
789.4038 26086.65730
789.5904 26298.92926
789.7770 26382.22015
789.9636 26407.06201
790.1502 26445.01087
790.3368 26441.32453
790.5233 26584.72330
790.7099 26303.59863
790.8964 25797.58651
791.0829 25844.75123
791.2694 25795.02655
791.4559 25843.13334
791.6423 25752.89984
791.8288 25828.71564
792.0152 26019.05385
792.2016 25953.10926
792.3880 26200.93396
792.5744 25793.55202
792.7608 25311.58305
792.9471 25362.72083
793.1335 25962.81663
793.3198 25626.47872
793.5061 25679.82831
793.6924 25308.87973
793.8787 25109.12086
794.0650 25117.72233
794.2512 25535.91755
794.4375 25640.36395
794.6237 25730.76129
794.8099 25671.37020
794.9961 25162.22469
795.1823 25144.32544
795.3684 25166.83262
795.5546 24827.13604
795.7407 24848.29156
795.9268 24738.86859
796.1129 25048.66482
796.2990 25104.57437
796.4851 25435.60804
796.6712 25154.89296
796.8572 25118.19336
797.0432 24776.42834
797.2292 25086.44985
797.4152 25107.78968
797.6012 24616.13382
797.7872 24460.46772
797.9731 24472.55073
798.1591 24268.10201
798.3450 24136.37666
798.5309 24373.53144
798.7168 24300.31656
798.9027 24312.64533
799.0885 24531.24552
799.2744 24409.55521
799.4602 24701.71844
799.6460 24635.99912
799.8318 25060.78880
800.0176 24503.94609
800.2034 24628.03252
800.3892 24082.16693
800.5749 24002.99246
800.7606 23928.05728
800.9463 24212.90925
801.1320 24041.57619
801.3177 24086.09903
801.5034 23964.98216
801.6890 24312.15382
801.8747 23793.95629
802.0603 23517.82866
802.2459 23497.59473
802.4315 23609.16807
802.6171 23318.39746
802.8026 23583.60942
802.9882 23487.21153
803.1737 23295.21446
803.3592 23588.29927
803.5447 23455.83665
803.7302 23782.26239
803.9157 23601.30387
804.1012 23717.85377
804.2866 23173.40128
804.4720 23256.71265
804.6574 23156.64889
804.8428 23028.01597
805.0282 23049.27389
805.2136 22886.58325
805.3989 23207.70475
805.5843 23012.57429
805.7696 22925.00315
805.9549 22815.49826
806.1402 22620.30636
806.3255 22576.86894
806.5107 22785.94607
806.6960 22972.63890
806.8812 22522.12673
807.0664 22723.13487
807.2516 22438.34433
807.4368 22249.56257
807.6220 22109.58391
807.8072 22164.96098
807.9923 22360.33720
808.1774 22241.82125
808.3625 22442.25595
808.5476 22430.39821
808.7327 22602.28423
808.9178 22180.54603
809.1028 22104.38207
809.2879 21990.61740
809.4729 21983.46999
809.6579 21770.97276
809.8429 21898.29497
810.0279 21851.82656
810.2128 21608.50740
810.3978 21764.07110
810.5827 21921.76470
810.7676 22088.96086
810.9525 22171.69880
811.1374 21865.30220
811.3223 21838.49429
811.5072 21597.30501
811.6920 21737.93902
811.8768 21797.12532
812.0616 21672.38354
812.2464 21797.71923
812.4312 21511.92519
812.6160 21640.08707
812.8007 21763.47719
812.9855 21771.91482
813.1702 21591.52973
813.3549 21552.88456
813.5396 21187.17878
813.7243 21333.87479
813.9089 21318.92461
814.0936 21412.16863
814.2782 21419.21364
814.4628 21261.80677
814.6474 21301.31208
814.8320 21282.88036
815.0166 20945.17032
815.2012 21069.27722
815.3857 20873.42997
815.5702 20853.40084
815.7547 20933.90649
815.9392 21078.82076
816.1237 20815.86157
816.3082 20614.81248
816.4926 20790.24148
816.6771 20926.67716
816.8615 20612.51875
817.0459 20795.48428
817.2303 20631.23719
817.4147 20752.37454
817.5990 20789.17654
817.7834 20509.03489
817.9677 20536.86679
818.1520 20698.65632
818.3363 20537.09206
818.5206 20361.41730
818.7049 20264.97846
818.8891 20294.14153
819.0734 20374.87246
819.2576 20518.35315
819.4418 20217.60894
819.6260 20107.79685
819.8102 20193.07427
819.9944 20160.10198
820.1785 19965.62686
820.3627 20161.39220
820.5468 20178.73849
820.7309 19870.99023
820.9150 19679.13652
821.0991 19497.09257
821.2831 19849.58895
821.4672 19708.56583
821.6512 19615.64948
821.8352 19569.42683
822.0192 19902.71326
822.2032 19683.90828
822.3872 19725.89164
822.5711 19485.95162
822.7551 19401.67771
822.9390 19459.92194
823.1229 19509.29847
823.3068 19498.56711
823.4907 19321.39733
823.6745 19307.47115
823.8584 19190.24542
824.0422 19335.48736
824.2261 19424.24632
824.4099 19407.20722
824.5937 19533.62834
824.7774 19536.18830
824.9612 19451.93486
825.1449 19145.23106
825.3287 19223.97546
825.5124 19187.93121
825.6961 19389.73805
825.8798 19266.67561
826.0634 19329.65065
826.2471 19181.35723
826.4307 19391.51978
826.6144 19225.65480
826.7980 19323.83442
826.9816 19122.53957
827.1652 19269.74756
827.3487 19125.18145
827.5323 18819.50163
827.7158 18633.83279
827.8993 18893.39235
828.0828 18716.26353
828.2663 18467.70156
828.4498 18667.33755
828.6333 18855.54588
828.8167 18586.77046
829.0001 18688.77979
829.1836 18792.85756
829.3670 18724.10725
829.5504 18946.06610
829.7337 18820.60754
829.9171 18697.42222
830.1004 18741.65834
830.2837 18632.62448
830.4671 18496.43456
830.6504 18325.08102
830.8336 18470.71207
831.0169 18320.86220
831.2002 18617.30568
831.3834 18525.65908
831.5666 18319.89966
831.7498 18321.43563
831.9330 18605.20218
832.1162 18482.93845
832.2993 18361.92397
832.4825 18460.30839
832.6656 18330.46718
832.8487 17880.61036
833.0318 18018.45914
833.2149 17918.51826
833.3980 17952.80126
833.5811 18047.41741
833.7641 17985.26156
833.9471 17890.60445
834.1301 17716.62950
834.3131 17529.62947
834.4961 17719.74241
834.6791 17742.92542
834.8620 18147.11253
835.0450 17975.86139
835.2279 18059.35707
835.4108 17966.19497
835.5937 18021.79732
835.7766 17784.90878
835.9594 17739.75107
836.1423 17800.49382
836.3251 18027.32684
836.5079 18002.58738
836.6907 17585.41614
836.8735 17510.70624
837.0563 17515.78521
837.2390 17597.00765
837.4218 17488.32195
837.6045 17757.75271
837.7872 17767.93112
837.9699 17612.40837
838.1526 17409.94618
838.3352 17376.50285
838.5179 17357.86634
838.7005 17432.26904
838.8831 17562.21266
839.0658 17528.38021
839.2483 17520.39314
839.4309 17547.69256
839.6135 17539.19349
839.7960 17114.19901
839.9786 17185.75504
840.1611 17116.24698
840.3436 17289.25938
840.5261 17069.61473
840.7085 16944.11521
840.8910 16863.99867
841.0734 16864.81786
841.2559 16816.83395
841.4383 16947.43292
841.6207 17156.05950
841.8030 16981.85927
841.9854 16900.35012
842.1678 16768.03086
842.3501 16899.30565
842.5324 16795.43268
842.7147 16949.09177
842.8970 17161.93717
843.0793 17053.70202
843.2615 16973.33972
843.4438 17029.22879
843.6260 16974.09747
843.8082 16918.14697
843.9904 16907.88664
844.1726 16771.86056
844.3548 16713.14529
844.5369 16611.64796
844.7191 16651.99295
844.9012 16494.03312
845.0833 16500.42278
845.2654 16796.88674
845.4475 16940.34695
845.6296 16655.22874
845.8116 16564.52420
845.9936 16478.18184
846.1757 16517.50284
846.3577 16481.15139
846.5397 16512.42388
846.7216 16373.79687
846.9036 16294.29473
847.0855 16066.58108
847.2675 16256.16155
847.4494 16188.94721
847.6313 16429.15347
847.8132 16526.10431
847.9950 16376.58211
848.1769 16304.30929
848.3587 16462.35104
848.5406 16276.41596
848.7224 16215.14073
848.9042 16117.14543
849.0860 16216.82007
849.2677 16056.97611
849.4495 15961.49980
849.6312 15952.24298
849.8129 16036.16874
849.9946 16163.77768
850.1763 16028.22263
850.3580 15851.11429
850.5397 15804.85067
850.7213 15540.08927
850.9029 15563.29276
851.0845 15705.25795
851.2661 15718.11920
851.4477 15679.86314
851.6293 15687.68638
851.8109 15667.53437
851.9924 15799.50548
852.1739 15855.53790
852.3554 15782.54829
852.5369 15646.99324
852.7184 15498.76126
852.8999 15471.21608
853.0813 15460.09561
853.2628 15506.07251
853.4442 15602.08129
853.6256 15562.84221
853.8070 15703.06663
853.9883 15683.67236
854.1697 15532.92138
854.3510 15381.41265
854.5324 15419.58679
854.7137 15392.18497
854.8950 15341.00623
855.0763 15350.36545
855.2575 15365.66377
855.4388 15379.69236
855.6200 15376.68185
855.8013 15397.26393
855.9825 15314.50552
856.1637 15300.72269
856.3449 15137.25382
856.5260 15205.92221
856.7072 15198.42665
856.8883 15379.03701
857.0694 15314.34168
857.2505 15359.78610
857.4316 15315.34518
857.6127 15180.69124
857.7938 15287.30849
857.9748 15330.78687
858.1558 15181.51043
858.3368 15076.04003
858.5178 15000.01943
858.6988 15126.19479
858.8798 15018.14396
859.0607 15157.99974
859.2417 15029.63306
859.4226 15037.25151
859.6035 15095.49574
859.7844 15156.40233
859.9653 15074.70885
860.1462 14871.07932
860.3270 14822.41958
860.5078 14736.65065
860.6887 14788.87386
860.8695 14714.08204
861.0503 14823.30021
861.2310 14585.10097
861.4118 14554.60671
861.5925 14496.30104
861.7733 14384.23619
861.9540 14268.44404
862.1347 14125.25006
862.3154 14102.68145
862.4960 14255.95143
862.6767 14271.96654
862.8573 14221.66843
863.0380 14142.88307
863.2186 14242.20956
863.3992 14161.15095
863.5797 14142.41204
863.7603 14153.92163
863.9409 14074.80859
864.1214 14105.56908
864.3019 14186.32049
864.4824 14161.68343
864.6629 14053.96027
864.8434 13847.23830
865.0238 13985.53763
865.2043 14064.38443
865.3847 13729.52106
865.5651 13645.77962
865.7455 13858.58405
865.9259 13851.58000
866.1063 13738.83932
866.2866 13702.79507
866.4670 13741.03065
866.6473 13607.50308
866.8276 13566.17507
867.0079 13462.17922
867.1882 13421.56800
867.3684 13298.77179
867.5487 13250.82885
867.7289 13274.42145
867.9091 13344.05238
868.0893 13145.35845
868.2695 12966.26359
868.4497 12929.17487
868.6299 13035.95596
868.8100 13103.04742
868.9901 13055.12495
869.1703 13165.34663
869.3504 13177.88020
869.5304 13112.77527
869.7105 13173.57946
869.8906 13082.19910
870.0706 13005.95322
870.2506 13172.49404
870.4306 13151.62524
870.6106 13100.50794
870.7906 13217.56983
870.9706 13079.45482
871.1505 12893.80645
871.3305 12901.40442
871.5104 12765.23498
871.6903 12728.57633
871.8702 12838.32698
872.0500 12831.77348
872.2299 12834.80447
872.4097 12641.98822
872.5896 12682.66087
872.7694 12735.45751
872.9492 12615.28270
873.1290 12383.26832
873.3087 12442.74134
873.4885 12681.16586
873.6682 12623.72033
873.8480 12511.32781
874.0277 12523.49274
874.2074 12278.98575
874.3870 12421.48342
874.5667 12446.12048
874.7463 12562.03552
874.9260 12391.56260
875.1056 12337.63958
875.2852 12250.74427
875.4648 12173.26961
875.6444 12121.51744
875.8239 12293.07578
876.0035 12218.95979
876.1830 12216.03120
876.3625 12113.63276
876.5420 12152.72848
876.7215 12171.28308
876.9010 11928.16871
877.0804 11990.65223
877.2599 11881.84365
877.4393 12044.92341
877.6187 12079.20640
877.7981 12103.63867
877.9775 11906.23496
878.1568 12147.73144
878.3362 12021.06457
878.5155 11933.73918
878.6948 11745.87901
878.8741 11760.17383
879.0534 11703.85469
879.2327 11659.37281
879.4119 11607.57968
879.5912 11503.64527
879.7704 11682.45342
879.9496 11777.43821
880.1288 11653.96617
880.3080 11439.54384
880.4872 11603.21751
880.6663 11577.26974
880.8455 11599.10109
881.0246 11640.08094
881.2037 11603.44278
881.3828 11539.77143
881.5619 11478.63957
881.7409 11417.58962
881.9200 11289.75541
882.0990 11438.54034
882.2780 11390.37211
882.4570 11326.92604
882.6360 11328.64634
882.8150 11107.34283
882.9940 11086.84267
883.1729 11101.01461
883.3518 11310.39893
883.5308 11240.76800
883.7096 11280.10948
883.8885 11076.95098
884.0674 10981.53611
884.2463 10945.75810
884.4251 10965.76675
884.6039 10869.24599
884.7827 10947.33503
884.9615 10885.44542
885.1403 10935.21106
885.3191 10992.61562
885.4978 10747.39185
885.6765 10813.88939
885.8553 10924.21347
886.0340 10886.89948
886.2127 10819.50083
886.3913 10724.14740
886.5700 10656.11388
886.7486 10576.50933
886.9273 10516.42193
887.1059 10432.37329
887.2845 10435.69100
887.4630 10526.45698
887.6416 10593.05692
887.8202 10621.05265
887.9987 10546.50659
888.1772 10556.00917
888.3557 10537.47505
888.5342 10432.80337
888.7127 10505.62913
888.8912 10440.56517
889.0696 10433.84783
889.2481 10302.28632
889.4265 10225.71277
889.6049 10158.84659
889.7833 10212.74912
889.9616 10106.86914
890.1400 10118.44016
890.3183 9844.38098
890.4967 9956.65063
890.6750 10137.36339
890.8533 10069.45275
891.0316 10038.40554
891.2098 9956.40488
891.3881 9906.47540
891.5663 9900.41341
891.7445 9875.30531
891.9227 9756.44121
892.1009 9755.17147
892.2791 9927.11892
892.4573 9935.57703
892.6354 9818.53562
892.8136 9825.51919
892.9917 9820.19447
893.1698 9710.83294
893.3479 9840.53080
893.5259 9960.66465
893.7040 9845.09777
893.8820 9764.63308
894.0601 9745.48457
894.2381 9809.99559
894.4161 9817.75739
894.5941 9803.29873
894.7720 9841.51383
894.9500 9845.83504
895.1279 9919.25472
895.3058 9817.34780
895.4838 9809.60648
895.6616 9657.15568
895.8395 9603.00739
896.0174 9547.03640
896.1952 9599.03433
896.3731 9677.00050
896.5509 9630.26585
896.7287 9627.15294
896.9065 9579.06663
897.0842 9585.78397
897.2620 9518.87683
897.4397 9475.15270
897.6175 9477.91746
897.7952 9490.36911
897.9729 9622.23781
898.1506 9625.20737
898.3282 9508.61651
898.5059 9425.32562
898.6835 9412.73061
898.8611 9537.30855
899.0388 9377.97658
899.2163 9245.88260
899.3939 9196.89518
899.5715 9311.17184
899.7490 9269.35232
899.9266 9288.60322
900.1041 9378.38617
900.2816 9355.16221
900.4591 9274.84087
900.6365 9251.69883
900.8140 9138.65095
900.9914 9143.52512
901.1689 9115.40651
901.3463 9094.31243
901.5237 9115.69322
901.7011 9096.72903
901.8784 9052.96394
902.0558 8952.55203
902.2331 9035.02373
902.4104 9138.42568
902.5878 9145.42973
902.7650 9069.20433
902.9423 9016.89921
903.1196 9068.48754
903.2968 9179.09834
903.4741 9136.09099
903.6513 9049.85103
903.8285 8950.29927
904.0057 8979.19611
904.1828 8837.27187
904.3600 8758.11788
904.5371 8767.16990
904.7143 8803.09127
904.8914 8880.85265
905.0685 8956.36125
905.2456 8947.16587
905.4226 8937.29467
905.5997 8973.13412
905.7767 9053.35305
905.9537 8845.11559
906.1307 8782.03815
906.3077 8714.27087
906.4847 8674.90891
906.6617 8680.86850
906.8386 8739.56328
907.0156 8644.78329
907.1925 8593.23592
907.3694 8568.23022
907.5463 8608.69808
907.7231 8636.12038
907.9000 8626.65877
908.0768 8583.20087
908.2537 8464.17292
908.4305 8483.40335
908.6073 8655.57608
908.7841 8635.07592
908.9608 8513.09890
909.1376 8500.87253
909.3143 8470.39875
909.4910 8390.24125
909.6677 8343.30181
909.8444 8400.27630
910.0211 8421.12462
910.1978 8368.90142
910.3744 8395.48405
910.5510 8438.86003
910.7277 8463.70189
910.9043 8376.02835
911.0808 8419.97776
911.2574 8376.74514
911.4340 8311.88597
911.6105 8166.43923
911.7870 8236.17256
911.9636 8228.04213
912.1401 8179.54623
912.3165 8245.14267
912.4930 8192.28459
912.6695 8122.65366
912.8459 8075.09982
913.0223 8109.38282
913.1987 8112.08614
913.3751 8043.39727
913.5515 7973.99160
913.7279 7998.23955
913.9042 8009.56482
914.0805 7970.40766
914.2568 7916.17745
914.4331 7911.95863
914.6094 7895.12433
914.7857 7866.12509
914.9620 7850.68341
915.1382 7810.11315
915.3144 7745.33589
915.4906 7867.59963
915.6668 7910.48409
915.8430 7826.39450
916.0192 7623.56367
916.1953 7734.82981
916.3715 7807.14359
916.5476 7745.21302
916.7237 7789.08051
916.8998 7758.40193
917.0759 7710.45899
917.2519 7633.76256
917.4280 7748.83792
917.6040 7708.80013
917.7800 7696.81951
917.9560 7695.22210
918.1320 7629.89190
918.3080 7645.55886
918.4839 7561.63310
918.6599 7533.92408
918.8358 7578.44692
919.0117 7601.05650
919.1876 7515.02133
919.3635 7501.21802
919.5394 7596.16185
919.7152 7517.58129
919.8911 7448.25755
920.0669 7429.10904
920.2427 7374.98122
920.4185 7319.62463
920.5942 7314.23847
920.7700 7282.86359
920.9458 7358.43364
921.1215 7349.87313
921.2972 7311.57611
921.4729 7346.61686
921.6486 7200.90388
921.8243 7063.17798
921.9999 7090.14973
922.1756 7122.26188
922.3512 7131.35486
922.5268 7053.26581
922.7024 7160.53842
922.8780 7190.35684
923.0535 7195.64060
923.2291 7171.88416
923.4046 7184.49965
923.5801 7303.91671
923.7557 7206.00332
923.9311 7148.55780
924.1066 7092.87353
924.2821 7183.88526
924.4575 7156.09433
924.6330 7103.60489
924.8084 7015.48079
924.9838 6959.55076
925.1592 6952.19856
925.3345 6938.66148
925.5099 6914.74121
925.6852 6903.41594
925.8606 6878.34880
926.0359 6829.21803
926.2112 6828.00973
926.3864 6796.16382
926.5617 6711.50079
926.7370 6720.34801
926.9122 6672.40507
927.0874 6625.01507
927.2626 6642.34088
927.4378 6638.65454
927.6130 6619.36267
927.7882 6588.04923
927.9633 6531.09522
928.1384 6467.11668
928.3135 6374.71233
928.4886 6356.32157
928.6637 6376.33022
928.8388 6404.48979
929.0139 6426.44402
929.1889 6375.98207
929.3639 6367.29868
929.5389 6382.92468
929.7139 6346.40940
929.8889 6372.00901
930.0639 6403.77300
930.2388 6352.79906
930.4138 6288.61572
930.5887 6316.73433
930.7636 6381.83926
930.9385 6350.30054
931.1134 6224.49382
931.2882 6200.69642
931.4631 6140.21991
931.6379 6121.76771
931.8127 6098.58470
931.9875 6111.34355
932.1623 6088.48822
932.3371 6091.08914
932.5118 6096.98729
932.6866 6084.65851
932.8613 6044.72312
933.0360 6026.33236
933.2107 5975.25602
933.3854 5934.84960
933.5600 5949.00106
933.7347 5831.69341
933.9093 5839.12754
934.0839 5852.43934
934.2586 5895.69244
934.4331 5871.62880
934.6077 5827.12644
934.7823 5807.24067
934.9568 5802.22314
935.1314 5777.95471
935.3059 5779.90028
935.4804 5715.45071
935.6549 5761.46857
935.8293 5752.37558
936.0038 5703.75681
936.1782 5719.32137
936.3526 5734.53778
936.5271 5655.09707
936.7015 5614.19913
936.8758 5626.71222
937.0502 5621.36702
937.2246 5633.61388
937.3989 5687.47545
937.5732 5616.20614
937.7475 5553.57926
937.9218 5521.81526
938.0961 5508.42155
938.2703 5509.28169
938.4446 5473.48320
938.6188 5516.87966
938.7930 5475.36733
938.9672 5423.06221
939.1414 5461.23635
939.3156 5400.71887
939.4897 5329.32668
939.6639 5319.55787
939.8380 5339.77132
940.0121 5328.67133
940.1862 5354.74197
940.3603 5382.10283
940.5344 5379.52239
940.7084 5381.01741
940.8824 5374.03384
941.0565 5373.25561
941.2305 5309.56378
941.4045 5228.91477
941.5784 5210.95409
941.7524 5237.70056
941.9263 5299.87689
942.1003 5307.18814
942.2742 5271.96307
942.4481 5175.54471
942.6220 5171.61261
942.7958 5193.71019
942.9697 5229.28341
943.1435 5208.39413
943.3174 5196.61830
943.4912 5172.92331
943.6650 5141.01595
943.8387 5100.38425
944.0125 5046.95275
944.1863 5075.07136
944.3600 5056.51676
944.5337 5014.10333
944.7074 5058.15514
944.8811 5040.91124
945.0548 4994.91386
945.2284 4929.35838
945.4021 4921.55562
945.5757 4968.78178
945.7493 4900.17483
945.9229 4796.36329
946.0965 4766.42199
946.2701 4744.20153
946.4436 4770.82512
946.6172 4796.05610
946.7907 4790.19891
946.9642 4768.73619
947.1377 4766.66775
947.3112 4772.44302
947.4847 4813.54575
947.6581 4834.70127
947.8315 4814.32398
948.0050 4742.78843
948.1784 4722.20634
948.3518 4741.45725
948.5251 4711.80266
948.6985 4760.89247
948.8718 4746.10614
949.0452 4688.49678
949.2185 4685.58866
949.3918 4647.20973
949.5651 4657.75677
949.7383 4597.44409
949.9116 4620.17654
950.0848 4634.06177
950.2581 4622.01971
950.4313 4670.96617
950.6045 4677.90878
950.7776 4667.07503
950.9508 4595.99003
951.1239 4580.46643
951.2971 4512.02331
951.4702 4512.90394
951.6433 4505.53125
951.8164 4475.87666
951.9895 4515.66870
952.1625 4451.11672
952.3356 4481.85673
952.5086 4435.94127
952.6816 4469.38460
952.8546 4436.67854
953.0276 4434.67153
953.2006 4428.24091
953.3735 4400.53189
953.5465 4419.80328
953.7194 4396.31308
953.8923 4371.53265
954.0652 4390.84500
954.2381 4346.42456
954.4109 4319.55521
954.5838 4315.31591
954.7566 4290.10542
954.9294 4245.99217
955.1022 4267.12721
955.2750 4281.83162
955.4478 4272.20617
955.6206 4276.11779
955.7933 4296.43364
955.9660 4272.39049
956.1388 4252.99622
956.3115 4219.77817
956.4841 4189.71399
956.6568 4148.14022
956.8295 4143.57325
957.0021 4126.45223
957.1747 4153.07583
957.3473 4133.80444
957.5199 4095.60983
957.6925 4139.21108
957.8651 4135.36090
958.0376 4160.48948
958.2102 4115.57752
958.3827 4149.04133
958.5552 4190.26694
958.7277 4160.79667
958.9001 4118.17844
959.0726 4054.75285
959.2450 4012.60565
959.4175 4001.73094
959.5899 3956.30699
959.7623 3951.24851
959.9347 3923.92860
960.1070 3905.27161
960.2794 3911.23120
960.4517 3884.32089
960.6241 3916.59688
960.7964 3936.13450
960.9687 3947.66456
961.1409 3940.45571
961.3132 3893.39339
961.4855 3863.10393
961.6577 3850.93900
961.8299 3860.31870
962.0021 3846.45395
962.1743 3802.77077
962.3465 3783.58131
962.5186 3790.85160
962.6908 3784.50289
962.8629 3778.78906
963.0350 3752.75938
963.2071 3767.44331
963.3792 3741.18835
963.5513 3743.17488
963.7233 3753.08705
963.8954 3753.94720
964.0674 3741.08595
964.2394 3738.52599
964.4114 3696.84983
964.5834 3693.83932
964.7553 3708.80997
964.9273 3714.87195
965.0992 3658.79857
965.2711 3681.40815
965.4430 3677.00501
965.6149 3671.51646
965.7868 3621.89417
965.9587 3611.92057
966.1305 3645.65061
966.3023 3658.77809
966.4741 3662.87403
966.6459 3633.23992
966.8177 3634.77590
966.9895 3613.19031
967.1613 3598.52685
967.3330 3590.39641
967.5047 3547.61435
967.6764 3556.97356
967.8481 3557.48556
968.0198 3540.48742
968.1915 3504.99612
968.3631 3510.05460
968.5347 3517.14057
968.7064 3498.85221
968.8780 3495.14539
969.0496 3522.28097
969.2211 3469.01331
969.3927 3499.54852
969.5642 3479.00739
969.7358 3433.09193
969.9073 3414.20966
970.0788 3467.62069
970.2503 3467.02678
970.4217 3479.29411
970.5932 3449.35281
970.7646 3442.18492
970.9360 3432.23179
971.1074 3439.44064
971.2788 3479.17123
971.4502 3455.64007
971.6216 3413.32904
971.7929 3388.81485
971.9643 3357.13277
972.1356 3380.90969
972.3069 3390.96522
972.4782 3390.47370
972.6494 3353.26211
972.8207 3346.40142
972.9919 3333.54017
973.1632 3313.98207
973.3344 3283.93837
973.5056 3255.14393
973.6768 3260.18193
973.8479 3304.43854
974.0191 3320.10550
974.1902 3298.51991
974.3614 3268.08709
974.5325 3272.89982
974.7036 3267.61606
974.8746 3248.65187
975.0457 3240.39855
975.2167 3219.67311
975.3878 3202.87977
975.5588 3216.94931
975.7298 3224.30152
975.9008 3194.68789
976.0718 3202.40873
976.2427 3177.79215
976.4137 3158.88940
976.5846 3153.72852
976.7555 3150.34937
976.9264 3145.45472
977.0973 3141.85030
977.2682 3145.84384
977.4390 3155.14162
977.6098 3170.80858
977.7807 3183.79270
977.9515 3182.80967
978.1223 3185.16484
978.2930 3141.13351
978.4638 3117.04940
978.6346 3078.13799
978.8053 3044.65370
978.9760 3053.66476
979.1467 3028.16755
979.3174 3034.76201
979.4881 3034.53674
979.6587 3042.87197
979.8294 3035.80648
980.0000 3020.03712
980.1706 3012.25484
980.3412 2995.29765
980.5118 2984.34102
980.6824 2982.57977
980.8529 3009.18288
981.0235 3012.72587
981.1940 3003.26425
981.3645 2988.12976
981.5350 2985.40597
981.7055 2962.55063
981.8759 2968.73550
982.0464 2965.37683
982.2168 2949.32076
982.3872 2972.50376
982.5576 2957.65599
982.7280 2951.38920
982.8984 2951.04105
983.0687 2948.11245
983.2391 2927.40749
983.4094 2915.63167
983.5797 2883.60144
983.7500 2884.93262
983.9203 2865.70219
984.0906 2881.55347
984.2608 2853.86493
984.4311 2879.28022
984.6013 2854.04925
984.7715 2893.45217
984.9417 2878.78871
985.1119 2871.86658
985.2820 2823.00204
985.4522 2839.69299
985.6223 2832.01311
985.7924 2825.84872
985.9625 2847.55719
986.1326 2872.95200
986.3027 2852.51327
986.4727 2854.35645
986.6428 2840.67601
986.8128 2822.16238
986.9828 2797.89395
987.1528 2804.77512
987.3228 2807.96995
987.4928 2810.89855
987.6627 2800.90446
987.8327 2791.44285
988.0026 2772.78585
988.1725 2770.16445
988.3424 2749.62332
988.5123 2745.87554
988.6821 2756.15634
988.8520 2755.84915
989.0218 2737.41743
989.1916 2767.33825
989.3614 2719.70250
989.5312 2721.17704
989.7010 2690.94902
989.8707 2698.40362
990.0405 2697.72780
990.2102 2702.99107
990.3799 2692.17780
990.5496 2683.51489
990.7193 2684.68223
990.8890 2680.79109
991.0586 2654.76141
991.2283 2667.74553
991.3979 2662.03170
991.5675 2672.88593
991.7371 2641.98209
991.9067 2630.00147
992.0762 2618.30757
992.2458 2616.83303
992.4153 2642.18688
992.5848 2649.62101
992.7543 2646.36474
992.9238 2640.58947
993.0933 2635.55146
993.2627 2616.71015
993.4322 2604.70905
993.6016 2608.53876
993.7710 2588.22291
993.9404 2603.60315
994.1098 2596.86533
994.2792 2593.58858
994.4485 2575.21830
994.6179 2579.00705
994.7872 2589.24689
994.9565 2582.85723
995.1258 2585.19191
995.2951 2580.82974
995.4643 2584.41368
995.6336 2586.11350
995.8028 2571.01997
995.9720 2538.94878
996.1412 2549.96685
996.3104 2552.79305
996.4796 2561.72219
996.6487 2541.34490
996.8179 2536.71649
996.9870 2549.65965
997.1561 2526.02610
997.3252 2514.27075
997.4943 2495.42944
997.6634 2495.59328
997.8324 2514.92610
998.0014 2499.30010
998.1705 2495.83904
998.3395 2466.51212
998.5085 2451.31620
998.6774 2461.69940
998.8464 2443.32912
999.0153 2451.62339
999.1843 2466.00013
999.3532 2465.18094
999.5221 2460.18390
999.6910 2474.08961
999.8599 2467.14699
1000.0287 2484.71857
1000.1976 2481.91285
1000.3664 2480.21303
1000.5352 2466.28685
1000.7040 2465.54958
1000.8728 2431.00035
1001.0415 2423.19758
1001.2103 2402.49262
1001.3790 2418.99925
1001.5478 2407.16199
1001.7165 2391.10591
1001.8851 2403.41421
1002.0538 2409.45571
1002.2225 2408.18597
1002.3911 2406.54760
1002.5598 2383.24171
1002.7284 2376.07382
1002.8970 2378.96146
1003.0656 2377.52788
1003.2341 2356.88436
1003.4027 2357.70354
1003.5712 2321.29066
1003.7398 2324.58789
1003.9083 2339.55854
1004.0768 2314.32757
1004.2453 2304.23108
1004.4137 2323.54343
1004.5822 2320.12332
1004.7506 2331.26427
1004.9190 2308.90045
1005.0874 2297.57518
1005.2558 2302.38791
1005.4242 2299.62315
1005.5926 2302.53127
1005.7609 2295.67057
1005.9292 2268.47355
1006.0976 2288.89179
1006.2659 2277.64845
1006.4342 2298.53773
1006.6024 2282.23590
1006.7707 2293.11061
1006.9389 2285.36929
1007.1071 2301.56872
1007.2754 2285.16449
1007.4436 2281.53959
1007.6117 2260.58887
1007.7799 2270.80823
1007.9481 2252.70419
1008.1162 2267.65436
1008.2843 2252.66323
1008.4524 2262.10436
1008.6205 2256.04237
1008.7886 2260.44551
1008.9566 2240.31398
1009.1247 2234.92782
1009.2927 2224.62653
1009.4607 2231.32339
1009.6287 2207.48504
1009.7967 2222.35329
1009.9647 2207.01400
1010.1327 2216.51658
1010.3006 2191.20368
1010.4685 2194.60331
1010.6364 2191.06033
1010.8043 2195.91401
1010.9722 2167.75444
1011.1401 2164.19098
1011.3079 2172.64909
1011.4758 2177.42085
1011.6436 2161.50814
1011.8114 2174.96329
1011.9792 2178.42436
1012.1470 2184.03579
1012.3147 2187.88597
1012.4825 2179.81698
1012.6502 2185.38745
1012.8179 2196.87656
1012.9856 2161.71293
1013.1533 2164.47769
1013.3210 2146.49653
1013.4886 2136.66628
1013.6563 2135.51941
1013.8239 2136.09285
1013.9915 2150.59246
1014.1591 2132.40650
1014.3267 2135.76517
1014.4942 2139.24672
1014.6618 2122.39193
1014.8293 2140.49598
1014.9969 2126.26260
1015.1644 2129.19119
1015.3319 2137.93602
1015.4993 2126.03732
1015.6668 2107.21649
1015.8342 2111.14859
1016.0017 2107.87184
1016.1691 2110.94379
1016.3365 2096.44417
1016.5039 2103.61206
1016.6712 2110.28844
1016.8386 2093.76133
1017.0059 2093.49510
1017.1733 2101.72793
1017.3406 2083.21429
1017.5079 2090.97609
1017.6752 2069.53386
1017.8424 2073.13829
1018.0097 2073.15877
1018.1769 2079.26171
1018.3441 2058.45435
1018.5113 2063.75859
1018.6785 2051.38886
1018.8457 2062.91892
1019.0129 2071.86855
1019.1800 2064.78257
1019.3471 2068.75563
1019.5142 2065.49936
1019.6813 2072.27814
1019.8484 2073.38404
1020.0155 2056.42686
1020.1826 2052.12613
1020.3496 2039.92023
1020.5166 2027.14091
1020.6836 2027.07947
1020.8506 2039.87927
1021.0176 2018.60088
1021.1846 2026.64940
1021.3515 2015.34461
1021.5185 2023.55696
1021.6854 2002.77008
1021.8523 2014.81214
1022.0192 2026.56748
1022.1861 2030.76581
1022.3529 2007.76712
1022.5198 2014.05439
1022.6866 1994.76252
1022.8534 2013.13280
1023.0202 2000.96787
1023.1870 1991.89537
1023.3538 1990.03171
1023.5205 2004.49037
1023.6873 1993.36990
1023.8540 2000.29204
1024.0207 1976.84280
1024.1874 1989.47876
1024.3541 1982.29039
1024.5207 1988.16806
1024.6874 1972.35774
1024.8540 1986.05865
1025.0206 1964.61642
1025.1872 1972.37822
1025.3538 1956.07639
1025.5204 1968.93764
1025.6870 1964.82122
1025.8535 1954.58137
1026.0201 1963.44908
1026.1866 1961.62639
1026.3531 1953.39355
1026.5196 1959.18930
1026.6860 1964.47306
1026.8525 1946.53286
1027.0189 1939.13969
1027.1853 1944.99688
1027.3518 1933.89689
1027.5181 1947.51588
1027.6845 1944.48489
1027.8509 1929.20704
1028.0172 1922.98122
1028.1836 1914.62550
1028.3499 1910.28381
1028.5162 1923.88232
1028.6825 1912.96665
1028.8488 1908.19488
1029.0150 1907.12994
1029.1813 1909.64894
1029.3475 1894.82165
1029.5137 1903.15688
1029.6799 1912.84377
1029.8461 1909.17791
1030.0123 1894.04342
1030.1784 1896.41906
1030.3446 1900.80172
1030.5107 1902.54249
1030.6768 1895.53844
1030.8429 1890.29564
1031.0090 1873.78901
1031.1750 1889.08733
1031.3411 1879.93291
1031.5071 1896.07091
1031.6732 1884.15173
1031.8392 1881.32553
1032.0051 1871.10617
1032.1711 1877.49583
1032.3371 1862.42278
1032.5030 1871.63864
1032.6690 1873.50229
1032.8349 1881.46889
1033.0008 1856.70895
1033.1667 1859.10507
1033.3325 1850.79032
1033.4984 1859.28939
1033.6642 1853.32980
1033.8300 1870.02075
1033.9959 1855.70544
1034.1616 1860.82537
1034.3274 1852.34677
1034.4932 1858.67500
1034.6589 1834.71376
1034.8247 1857.58958
1034.9904 1837.45804
1035.1561 1844.87169
1035.3218 1836.63885
1035.4875 1846.65342
1035.6531 1827.15676
1035.8188 1844.76929
1035.9844 1825.37503
1036.1500 1825.49790
1036.3156 1809.60567
1036.4812 1824.82207
1036.6468 1820.56230
1036.8123 1819.90695
1036.9779 1818.53481
1037.1434 1828.22170
1037.3089 1815.89293
1037.4744 1824.10529
1037.6399 1812.88242
1037.8053 1812.80050
1037.9708 1809.07320
1038.1362 1816.05677
1038.3016 1803.27744
1038.4670 1815.17614
1038.6324 1819.19016
1038.7978 1783.94462
1038.9632 1815.19662
1039.1285 1807.68058
1039.2938 1788.61399
1039.4592 1792.52561
1039.6245 1781.73281
1039.7897 1801.10660
1039.9550 1800.69700
1040.1203 1802.68353
1040.2855 1789.71989
1040.4507 1793.42671
1040.6159 1788.18391
1040.7811 1779.23429
1040.9463 1775.75274
1041.1115 1773.31566
1041.2766 1769.48596
1041.4418 1770.05939
1041.6069 1750.03026
1041.7720 1766.00441
1041.9371 1750.72657
1042.1021 1765.53338
1042.2672 1757.91494
1042.4323 1765.43098
1042.5973 1746.20055
1042.7623 1760.24962
1042.9273 1760.63873
1043.0923 1761.00737
1043.2572 1746.77399
1043.4222 1746.18007
1043.5871 1731.84429
1043.7521 1752.07823
1043.9170 1753.69612
1044.0819 1739.89281
1044.2467 1741.24447
1044.4116 1739.38082
1044.5765 1736.30887
1044.7413 1736.12455
1044.9061 1723.79578
1045.0709 1742.96476
1045.2357 1722.85371
1045.4005 1712.53195
1045.5652 1716.56645
1045.7300 1719.49504
1045.8947 1710.60686
1046.0594 1711.44653
1046.2241 1714.35464
1046.3888 1718.79873
1046.5535 1718.34818
1046.7181 1721.33821
1046.8828 1704.17624
1047.0474 1694.57126
1047.2120 1699.32255
1047.3766 1707.20723
1047.5412 1698.01185
1047.7057 1696.70115
1047.8703 1699.91646
1048.0348 1699.69118
1048.1993 1692.89193
1048.3639 1703.04985
1048.5283 1680.21500
1048.6928 1690.22957
1048.8573 1678.00320
1049.0217 1688.24304
1049.1861 1670.85578
1049.3506 1686.46131
1049.5150 1682.40633
1049.6793 1685.56020
1049.8437 1682.05817
1050.0081 1670.44619
1050.1724 1658.40413
1050.3367 1680.25596
1050.5010 1677.24545
1050.6653 1672.35080
1050.8296 1657.35967
1050.9939 1670.83530
1051.1581 1656.23329
1051.3224 1671.32682
1051.4866 1651.21576
1051.6508 1664.48660
1051.8150 1648.84012
1051.9791 1646.56687
1052.1433 1643.69972
1052.3074 1639.76762
1052.4716 1638.76411
1052.6357 1647.09935
1052.7998 1632.00582
1052.9639 1651.66632
1053.1279 1627.17261
1053.2920 1637.26910
1053.4560 1627.27501
1053.6201 1635.20065
1053.7841 1633.84899
1053.9481 1630.28552
1054.1120 1626.00527
1054.2760 1628.48331
1054.4399 1623.30195
1054.6039 1628.03276
1054.7678 1608.80233
1054.9317 1618.89882
1055.0956 1620.20952
1055.2595 1617.91579
1055.4233 1603.12946
1055.5872 1603.64145
1055.7510 1600.56950
1055.9148 1605.25935
1056.0786 1597.53850
1056.2424 1609.51912
1056.4062 1591.23076
1056.5699 1613.71746
1056.7336 1604.97263
1056.8974 1596.51452
1057.0611 1588.38408
1057.2248 1588.11785
1057.3885 1580.74516
1057.5521 1592.56194
1057.7158 1577.71417
1057.8794 1593.79072
1058.0430 1583.46896
1058.2066 1592.80770
1058.3702 1577.28409
1058.5338 1582.13778
1058.6973 1577.40697
1058.8609 1584.65678
1059.0244 1569.07174
1059.1879 1574.99037
1059.3514 1559.44628
1059.5149 1575.31804
1059.6784 1572.12321
1059.8418 1575.05181
1060.0053 1568.82598
1060.1687 1558.03319
1060.3321 1553.24094
1060.4955 1561.24850
1060.6589 1549.82083
1060.8222 1560.30643
1060.9856 1551.07009
1061.1489 1550.04611
1061.3122 1539.41715
1061.4755 1556.19001
1061.6388 1544.90571
1061.8021 1552.54463
1061.9654 1540.25682
1062.1286 1536.40664
1062.2918 1538.65940
1062.4550 1549.08356
1062.6182 1531.96254
1062.7814 1541.71087
1062.9446 1537.06199
1063.1077 1526.63783
1063.2709 1516.52086
1063.4340 1530.48801
1063.5971 1527.06790
1063.7602 1524.09834
1063.9233 1521.82510
1064.0863 1523.89355
1064.2494 1515.33304
1064.4124 1522.72620
1064.5754 1516.88949
1064.7384 1515.10776
1064.9014 1506.15814
1065.0644 1513.12123
1065.2274 1496.12309
1065.3903 1512.13821
1065.5532 1497.39283
1065.7162 1513.14171
1065.8790 1494.01368
1066.0419 1495.54966
1066.2048 1499.44080
1066.3677 1499.01073
1066.5305 1491.57660
1066.6933 1485.51461
1066.8561 1486.16996
1067.0189 1490.36830
1067.1817 1483.58952
1067.3445 1485.65797
1067.5072 1472.46905
1067.6699 1475.41813
1067.8327 1469.99101
1067.9954 1474.14839
1068.1580 1481.39820
1068.3207 1468.86463
1068.4834 1462.35209
1068.6460 1476.72883
1068.8086 1467.61537
1068.9713 1466.05891
1069.1339 1457.21168
1069.2964 1462.88456
1069.4590 1456.92497
1069.6216 1464.37957
1069.7841 1451.86649
1069.9466 1453.36150
1070.1091 1443.85893
1070.2716 1453.87350
1070.4341 1455.18420
1070.5966 1448.89693
1070.7590 1451.74361
1070.9214 1448.07774
1071.0839 1444.96483
1071.2463 1447.75007
1071.4086 1436.77296
1071.5710 1438.86188
1071.7334 1434.90930
1071.8957 1444.32996
1072.0580 1428.94972
1072.2204 1434.52019
1072.3827 1430.09658
1072.5449 1428.25341
1072.7072 1424.15747
1072.8695 1424.44418
1073.0317 1407.50748
1073.1939 1421.10600
1073.3561 1415.67888
1073.5183 1417.95212
1073.6805 1409.96505
1073.8427 1415.84272
1074.0048 1413.15988
1074.1669 1419.81578
1074.3291 1407.03645
1074.4912 1404.08737
1074.6532 1397.04236
1074.8153 1394.17521
1074.9774 1393.82705
1075.1394 1401.87557
1075.3014 1404.12833
1075.4635 1400.76967
1075.6255 1387.64219
1075.7874 1402.32612
1075.9494 1383.46433
1076.1114 1384.59071
1076.2733 1383.44385
1076.4352 1395.07631
1076.5971 1378.09865
1076.7590 1394.54384
1076.9209 1379.61415
1077.0828 1380.14662
1077.2446 1374.73998
1077.4064 1372.67153
1077.5683 1361.79682
1077.7301 1367.20346
1077.8918 1360.26084
1078.0536 1376.35788
1078.2154 1371.13556
1078.3771 1367.32634
1078.5388 1364.21342
1078.7006 1367.77689
1078.8623 1357.43465
1079.0239 1357.47561
1079.1856 1348.11639
1079.3473 1364.82781
1079.5089 1352.39664
1079.6705 1355.50956
1079.8321 1347.39960
1079.9937 1352.45808
1080.1553 1335.21419
1080.3169 1341.66529
1080.4784 1341.15330
1080.6399 1344.75772
1080.8014 1337.42599
1080.9629 1346.04794
1081.1244 1338.83909
1081.2859 1339.69924
1081.4474 1327.22711
1081.6088 1338.65477
1081.7702 1330.29906
1081.9316 1330.17618
1082.0930 1325.34298
1082.2544 1325.17914
1082.4158 1326.08025
1082.5771 1331.09777
1082.7385 1323.88892
1082.8998 1336.52489
1083.0611 1316.20904
1083.2224 1316.80295
1083.3837 1311.23247
1083.5449 1317.31494
1083.7062 1297.63396
1083.8674 1301.36126
1084.0286 1302.67196
1084.1898 1316.47527
1084.3510 1295.13544
1084.5122 1308.30388
1084.6734 1295.21736
1084.8345 1303.57307
1084.9956 1297.06053
1085.1567 1295.99558
1085.3178 1292.80075
1085.4789 1299.25185
1085.6400 1283.60537
1085.8010 1289.33969
1085.9621 1291.51053
1086.1231 1291.96109
1086.2841 1274.84007
1086.4451 1281.04541
1086.6061 1278.64929
1086.7670 1288.00851
1086.9280 1270.90797
1087.0889 1279.46848
1087.2498 1276.49892
1087.4107 1281.98748
1087.5716 1276.58084
1087.7325 1268.36849
1087.8933 1269.63823
1088.0542 1286.08342
1088.2150 1268.40945
1088.3758 1265.82900
1088.5366 1268.20465
1088.6974 1274.94247
1088.8582 1264.90742
1089.0189 1275.14726
1089.1796 1276.56036
1089.3404 1274.36903
1089.5011 1263.88343
1089.6618 1279.95999
1089.8224 1252.00522
1089.9831 1265.86996
1090.1438 1258.33344
1090.3044 1270.15022
1090.4650 1259.93085
1090.6256 1263.51480
1090.7862 1257.76001
1090.9468 1266.52531
1091.1073 1252.78344
1091.2679 1258.49728
1091.4284 1267.22162
1091.5889 1271.41996
1091.7494 1261.63067
1091.9099 1257.18658
1092.0703 1259.13215
1092.2308 1259.05023
1092.3912 1256.08067
1092.5516 1270.04782
1092.7121 1249.67053
1092.8724 1266.77107
1093.0328 1247.27441
1093.1932 1257.24802
1093.3535 1248.56463
1093.5139 1262.94137
1093.6742 1252.76296
1093.8345 1258.78399
1093.9948 1251.65706
1094.1550 1254.68805
1094.3153 1247.88880
1094.4755 1252.66057
1094.6358 1259.66462
1094.7960 1256.98178
1094.9562 1247.56112
1095.1163 1259.39838
1095.2765 1250.12108
1095.4367 1262.92089
1095.5968 1248.13455
1095.7569 1260.79100
1095.9170 1246.35282
1096.0771 1263.61720
1096.2372 1247.90928
1096.3973 1257.14562
1096.5573 1246.90577
1096.7173 1251.96426
1096.8773 1252.94728
1097.0374 1259.54174
1097.1973 1246.74194
1097.3573 1256.46979
1097.5173 1246.78290
1097.6772 1246.88529
1097.8371 1248.25743
1097.9970 1249.24046
1098.1569 1250.38732
1098.3168 1255.28197
1098.4767 1247.88880
1098.6365 1259.50078
1098.7964 1255.50724
1098.9562 1261.28251
1099.1160 1238.30430
1099.2758 1260.87292
1099.4356 1246.66002
1099.5953 1258.08768
1099.7551 1250.48972
1099.9148 1260.17661
1100.0745 1252.39433
1100.2342 1252.72200
1100.3939 1243.15799
1100.5536 1258.12864
1100.7132 1255.42532
1100.8729 1256.77698
1101.0325 1251.14507
1101.1921 1252.92680
1101.3517 1253.11112
1101.5113 1255.01573
1101.6709 1251.69802
1101.8304 1249.42477
1101.9899 1245.65651
1102.1495 1254.29894
1102.3090 1238.61150
1102.4685 1258.33344
1102.6279 1247.74544
1102.7874 1246.10707
1102.9468 1247.33585
1103.1063 1254.01223
1103.2657 1248.44175
1103.4251 1252.76296
1103.5845 1249.89581
1103.7438 1258.29248
1103.9032 1246.45522
1104.0625 1258.39488
1104.2219 1246.41426
1104.3812 1255.20005
1104.5405 1247.17201
1104.6997 1261.40539
1104.8590 1253.07016
1105.0183 1261.30299
1105.1775 1249.07662
1105.3367 1259.43934
1105.4959 1247.66352
1105.6551 1263.00281
1105.8143 1248.58511
1105.9735 1256.79746
1106.1326 1246.98769
1106.2917 1254.95429
1106.4508 1243.50615
1106.6099 1254.93381
1106.7690 1252.94728
1106.9281 1254.44230
1107.0872 1249.50669
1107.2462 1257.49377
1107.4052 1254.95429
1107.5642 1243.81334
1107.7232 1255.15909
1107.8822 1257.76001
1108.0412 1238.28382
1108.2001 1253.19304
1108.3591 1251.84138
1108.5180 1252.45577
1108.6769 1248.74895
1108.8358 1254.42182
1108.9947 1246.86481
1109.1535 1250.20300
1109.3124 1247.82736
1109.4712 1254.29894
1109.6300 1252.43529
1109.7888 1259.60318
1109.9476 1244.20245
1110.1064 1250.98123
1110.2651 1254.46278
1110.4239 1255.40484
1110.5826 1249.03566
1110.7413 1253.66407
1110.9000 1237.97663
1111.0587 1250.30540
1111.2173 1250.18252
1111.3760 1251.18603
1111.5346 1250.59212
1111.6932 1255.13861
1111.8518 1250.51020
1112.0104 1256.94082
1112.1690 1247.23345
1112.3276 1256.14211
1112.4861 1242.13401
1112.6446 1255.15909
1112.8032 1255.60964
1112.9617 1251.24747
1113.1201 1252.12809
1113.2786 1258.49728
1113.4371 1250.96075
1113.5955 1252.74248
1113.7539 1247.33585
1113.9123 1254.05318
1114.0707 1249.65005
1114.2291 1252.49673
1114.3875 1250.40780
1114.5458 1261.83547
1114.7042 1248.01168
1114.8625 1242.93271
1115.0208 1246.80337
1115.1791 1253.70503
1115.3374 1248.54415
1115.4956 1253.84839
1115.6539 1246.25042
1115.8121 1259.21407
1115.9703 1241.88825
1116.1285 1261.24155
1116.2867 1243.77238
1116.4449 1250.03917
1116.6030 1245.32884
1116.7612 1257.98528
1116.9193 1241.60153
1117.0774 1251.73898
1117.2355 1244.36629
1117.3936 1255.07717
1117.5516 1253.99175
1117.7097 1255.71204
1117.8677 1247.78640
1118.0257 1261.05724
1118.1837 1253.33640
1118.3417 1253.78695
1118.4997 1249.30190
1118.6577 1241.54010
1118.8156 1253.29544
1118.9735 1246.70098
1119.1315 1238.22239
1119.2894 1260.56572
1119.4472 1244.63253
1119.6051 1253.31592
1119.7630 1243.60854
1119.9208 1253.47975
1120.0786 1243.19895
1120.2364 1255.30245
1120.3942 1244.63253
1120.5520 1246.57810
1120.7098 1247.29489
1120.8675 1259.31646
1121.0253 1262.47034
1121.1830 1253.27496
1121.3407 1253.04968
1121.4984 1260.97532
1121.6560 1252.02570
