# Averages = 100
# wavelength [µm]	intensity
446.8250 14.33578
447.0374 36746.70328
447.2498 1226.56944
447.4621 1223.23125
447.6745 1226.28273
447.8868 1249.26094
448.0992 1242.07257
448.3115 1237.11648
448.5238 1246.33234
448.7360 1235.21187
448.9483 1247.33585
449.1606 1234.10597
449.3728 1269.90446
449.5850 1234.33125
449.7972 1246.02515
450.0094 1230.84970
450.2216 1259.99229
450.4337 1248.85134
450.6459 1735.18248
450.8580 2091.52905
451.0701 2126.28308
451.2822 2157.02309
451.4943 2141.66332
451.7064 2131.09580
451.9184 2117.19009
452.1305 2221.39074
452.3425 2320.86059
452.5545 2206.25625
452.7665 2216.92617
452.9785 2315.55635
453.1905 2351.21148
453.4024 2308.30654
453.6143 2428.58374
453.8263 2414.35036
454.0382 2604.97529
454.2501 2402.63598
454.4619 2379.67825
454.6738 2506.09936
454.8856 2634.73228
455.0975 2441.17875
455.3093 2437.34905
455.5211 2497.27261
455.7329 2474.70400
455.9446 2530.69546
456.1564 2543.20855
456.3681 2641.53153
456.5798 2744.50340
456.7916 2662.05218
457.0033 2641.42913
457.2149 2600.96127
457.4266 2648.04407
457.6382 2692.91507
457.8499 2658.46823
458.0615 2774.93622
458.2731 2665.71804
458.4847 2794.06425
458.6963 2896.83132
458.9078 2925.33904
459.1194 3084.36382
459.3309 3114.81711
459.5424 2943.72980
459.7539 2852.24704
459.9654 2874.54942
460.1769 2905.20751
460.3883 2891.71140
460.5998 2753.78070
460.8112 2741.51337
461.0226 2805.53287
461.2340 2891.73187
461.4454 2861.13522
461.6567 2823.02252
461.8681 2839.69299
462.0794 2797.36148
462.2907 2936.04992
462.5020 3177.15728
462.7133 3279.90387
462.9246 3033.10316
463.1359 2903.52817
463.3471 2770.30781
463.5583 2848.47878
463.7696 3247.03397
463.9808 3065.82970
464.1919 3010.88270
464.4031 2983.07128
464.6143 3033.24652
464.8254 2931.81062
465.0365 2900.25143
465.2476 3164.45987
465.4587 3326.69996
465.6698 2910.75750
465.8809 2976.72258
466.0919 2969.65709
466.3030 3031.46478
466.5140 3059.72675
466.7250 2977.68512
466.9360 3120.59238
467.1469 3047.31606
467.3579 2859.43541
467.5688 2837.37878
467.7798 3076.23338
467.9907 3201.97866
468.2016 3074.61548
468.4125 3041.54079
468.6233 2887.75882
468.8342 2920.30104
469.0450 3098.55624
469.2559 3202.81833
469.4667 3148.81339
469.6775 2895.09054
469.8882 3070.92914
470.0990 3020.44671
470.3098 3311.93410
470.5205 3132.26580
470.7312 3213.85688
470.9419 3437.78178
471.1526 3322.93170
471.3633 3041.29503
471.5739 3072.66991
471.7846 3064.19132
471.9952 2991.52939
472.2058 3095.25901
472.4164 3078.58854
472.6270 3046.47639
472.8376 3181.92905
473.0481 3371.96007
473.2587 3448.10355
473.4692 3365.16081
473.6797 3247.21829
473.8902 3018.05059
474.1007 2983.05080
474.3111 3018.19395
474.5216 2938.95803
474.7320 3061.69280
474.9424 3226.53381
475.1528 3297.37305
475.3632 3150.26745
475.5736 3097.45034
475.7840 3112.89202
475.9943 3159.68811
476.2046 3184.93956
476.4149 3246.68582
476.6252 3267.34982
476.8355 3385.47666
477.0458 3447.55059
477.2561 3445.66646
477.4663 3281.37841
477.6765 3298.78614
477.8867 3311.23779
478.0969 3314.41215
478.3071 3287.25608
478.5173 3387.60655
478.7274 3360.47096
478.9375 3424.73622
479.1477 3387.62703
479.3578 3523.38688
479.5679 3475.97640
479.7779 3520.21252
479.9880 3501.98560
480.1980 3549.31416
480.4081 3566.55806
480.6181 3430.55245
480.8281 3555.45807
481.0381 3487.50646
481.2480 3480.15426
481.4580 3557.66987
481.6679 3528.81399
481.8778 3477.40998
482.0877 3497.15240
482.2976 3406.20210
482.5075 3490.66034
482.7174 3568.64699
482.9272 3632.31833
483.1371 3515.15404
483.3469 3550.46102
483.5567 3684.52106
483.7665 3552.03796
483.9762 3622.77480
484.1860 3756.91675
484.3957 3757.20347
484.6055 3604.79363
484.8152 3688.10500
485.0249 3807.15343
485.2346 3779.07577
485.4442 3779.66969
485.6539 3820.54714
485.8635 3801.19384
486.0732 3680.13840
486.2828 3705.18506
486.4924 3707.74502
486.7019 3829.98828
486.9115 3777.23260
487.1210 3790.42152
487.3306 3907.89301
487.5401 3882.04764
487.7496 3932.73487
487.9591 3980.26823
488.1686 3931.93616
488.3780 3870.08751
488.5875 3987.41564
488.7969 4070.84988
489.0063 4042.54695
489.2157 4095.63030
489.4251 4021.00232
489.6345 3992.12596
489.8438 4113.07900
490.0531 3932.12048
490.2625 4012.54421
490.4718 4110.08896
490.6811 4166.75626
490.8903 4183.18097
491.0996 4227.19182
491.3089 4217.15677
491.5181 4257.52223
491.7273 4280.35709
491.9365 4263.64566
492.1457 4330.06129
492.3549 4353.05998
492.5640 4263.56374
492.7732 4337.59781
492.9823 4381.44482
493.1914 4501.94730
493.4005 4487.57056
493.6096 4440.50824
493.8187 4408.64185
494.0277 4505.03974
494.2368 4487.36577
494.4458 4539.50705
494.6548 4607.11050
494.8638 4651.67430
495.0728 4626.25901
495.2817 4635.00383
495.4907 4662.71285
495.6996 4704.16374
495.9085 4711.04491
496.1174 4782.41663
496.3263 4777.11239
496.5352 4801.15554
496.7440 4894.50195
496.9529 4923.97222
497.1617 4867.77596
497.3705 4900.05195
497.5793 5016.92953
497.7881 4919.83533
497.9969 5016.62233
498.2056 5069.84904
498.4144 5095.79680
498.6231 5152.73033
498.8318 5151.27628
499.0405 5170.07663
499.2492 5152.75081
499.4578 5215.95113
499.6665 5216.50408
499.8751 5335.81874
500.0837 5343.04807
500.2923 5359.96429
500.5009 5356.58514
500.7095 5492.75459
500.9180 5449.80868
501.1266 5526.52559
501.3351 5534.06212
501.5436 5634.02347
501.7521 5627.87956
501.9606 5679.65221
502.1691 5739.35050
502.3775 5697.85866
502.5860 5752.74422
502.7944 5794.68662
503.0028 5855.38841
503.2112 5846.25447
503.4196 5915.31198
503.6279 5969.03020
503.8363 5911.99427
504.0446 6077.44966
504.2529 6050.02736
504.4612 6109.78709
504.6695 6197.54255
504.8778 6203.82982
505.0860 6229.24511
505.2943 6204.75140
505.5025 6300.78066
505.7107 6337.48026
505.9189 6401.02873
506.1271 6457.34787
506.3353 6455.81189
506.5434 6433.52999
506.7516 6530.95186
506.9597 6590.19960
507.1678 6661.50987
507.3759 6640.04716
507.5840 6687.60099
507.7920 6748.46663
508.0001 6744.55500
508.2081 6882.01467
508.4161 6847.99791
508.6241 7030.06233
508.8321 6987.13690
509.0401 6972.84208
509.2480 7106.57444
509.4560 7098.99696
509.6639 7184.88877
509.8718 7195.39485
510.0797 7340.20672
510.2876 7334.90248
510.4955 7427.51162
510.7033 7455.60975
510.9112 7518.58479
511.1190 7605.07051
511.3268 7583.09581
511.5346 7661.57397
511.7424 7708.82061
511.9501 7819.55428
512.1579 7849.22935
512.3656 7875.11567
512.5733 7848.38968
512.7810 8003.07276
512.9887 8073.97344
513.1964 8087.73579
513.4040 8146.12338
513.6117 8191.73164
513.8193 8300.62214
514.0269 8311.41494
514.2345 8434.19066
514.4421 8383.25768
514.6497 8388.78720
514.8572 8557.88798
515.0647 8602.10362
515.2723 8681.85152
515.4798 8742.71715
515.6873 8816.13683
515.8947 8891.19489
516.1022 8857.64916
516.3097 8938.97400
516.5171 9053.47593
516.7245 9119.05189
516.9319 9184.50497
517.1393 9233.04183
517.3467 9222.33096
517.5540 9234.16822
517.7614 9498.08995
517.9687 9506.05655
518.1760 9523.05469
518.3833 9666.35106
518.5906 9678.59791
518.7978 9839.99833
519.0051 9795.88508
519.2123 9976.94600
519.4196 9784.60078
519.6268 9981.14434
519.8340 10026.42493
520.0411 10100.23372
520.2483 10327.35345
520.4554 10288.81068
520.6626 10553.89976
520.8697 10491.37527
521.0768 10696.21311
521.2839 10657.71129
521.4909 10653.96351
521.6980 10837.95302
521.9050 11012.00989
522.1121 10922.96421
522.3191 11198.62080
522.5261 11164.15349
522.7331 11209.06544
522.9400 11404.58502
523.1470 11430.61470
523.3539 11565.65776
523.5608 11568.91403
523.7677 11577.55646
523.9746 11705.26779
524.1815 11992.55685
524.3884 11891.24383
524.5952 11901.64751
524.8020 12180.43750
525.0089 12130.18035
525.2157 12245.84962
525.4225 12327.52261
525.6292 12357.62775
525.8360 12434.11939
526.0427 12538.54531
526.2494 12735.04792
526.4562 12701.27691
526.6629 12844.90096
526.8695 12837.89691
527.0762 13087.70813
527.2829 13140.87340
527.4895 13244.00911
527.6961 13371.92524
527.9027 13478.15338
528.1093 13547.90719
528.3159 13605.14792
528.5224 13557.61456
528.7290 13928.54266
528.9355 13780.72028
529.1420 14162.66645
529.3485 14049.16802
529.5550 14250.17616
529.7615 14182.51127
529.9680 14357.73547
530.1744 14385.05538
530.3808 14583.33971
530.5872 14549.44583
530.7936 14710.62097
531.0000 14757.41706
531.2064 14934.01340
531.4127 15027.21646
531.6191 15127.46453
531.8254 15218.94729
532.0317 15430.11335
532.2380 15355.52633
532.4443 15527.37139
532.6505 15352.00382
532.8568 15648.85689
533.0630 15961.29501
533.2692 15886.60559
533.4754 16006.94423
533.6816 16192.30588
533.8878 16106.70079
534.0939 16445.39386
534.3001 16484.89918
534.5062 16599.38063
534.7123 16484.07999
534.9184 16598.72528
535.1245 16763.09525
535.3306 16792.54504
535.5366 17138.42648
535.7426 17159.21337
535.9487 17206.13233
536.1547 17204.10484
536.3607 17499.17618
536.5666 17412.48566
536.7726 17536.08058
536.9785 17739.99683
537.1845 17917.12564
537.3904 17797.99530
537.5963 17868.83454
537.8022 18093.57863
538.0080 18240.80710
538.2139 18341.17805
538.4197 18464.99824
538.6256 18398.11158
538.8314 18524.81941
539.0372 18664.73663
539.2430 19023.92987
539.4487 18810.06050
539.6545 19167.43104
539.8602 19058.19239
540.0659 19263.86989
540.2716 19651.32510
540.4773 19762.71412
540.6830 19896.56936
540.8887 19992.70101
541.0943 19743.38130
541.2999 19891.87951
541.5056 19903.49149
541.7112 20174.00768
541.9167 20057.62162
542.1223 20107.05959
542.3279 20497.42291
542.5334 20592.01859
542.7389 20780.02212
542.9444 20873.47093
543.1499 20965.34281
543.3554 20874.67923
543.5609 21265.32927
543.7663 21283.90435
543.9718 21141.18141
544.1772 21332.52313
544.3826 21323.49158
544.5880 21945.52113
544.7934 21767.22497
544.9987 21863.37711
545.2041 22230.78270
545.4094 22162.07335
545.6147 22164.03940
545.8200 22526.61179
546.0253 22453.39690
546.2306 22743.71695
546.4358 22568.00123
546.6411 22916.74983
546.8463 22757.25403
547.0515 23065.30949
547.2567 23196.01085
547.4619 23290.27885
547.6670 23394.00847
547.8722 23537.03861
548.0773 23822.83265
548.2824 23789.86035
548.4876 23941.63531
548.6926 24009.48452
548.8977 24158.35137
549.1028 24232.38544
549.3078 24456.78137
549.5129 24454.85628
549.7179 24589.55119
549.9229 24767.74495
550.1279 24610.29711
550.3328 24997.77280
550.5378 24678.69927
550.7427 25041.00542
550.9476 25227.86209
551.1526 24711.65108
551.3575 25307.42567
551.5623 25410.56138
551.7672 25292.00447
551.9720 25363.58098
552.1769 25541.75426
552.3817 25727.64838
552.5865 25557.60554
552.7913 25822.36694
552.9961 25686.46373
553.2008 25919.82977
553.4056 26229.07305
553.6103 26138.45043
553.8150 26349.65745
554.0197 26461.10791
554.2244 26322.91098
554.4291 26432.84594
554.6337 26852.16754
554.8384 26600.18547
555.0430 26859.02824
555.2476 26627.87400
555.4522 26641.18580
555.6568 26985.34695
555.8613 27114.28706
556.0659 27245.60282
556.2704 26960.38221
556.4750 27305.36255
556.6795 27466.27145
556.8839 27181.78811
557.0884 27743.01347
557.2929 27570.71786
557.4973 27445.91464
557.7018 27560.21178
557.9062 27743.85314
558.1106 27742.62435
558.3150 27540.59224
558.5193 27979.14427
558.7237 28039.19071
558.9280 27812.62393
559.1323 28023.23703
559.3367 27883.62700
559.5410 28168.80665
559.7452 27868.39012
559.9495 28231.16730
560.1537 28253.03961
560.3580 28105.70873
560.5622 28358.83767
560.7664 28558.35079
560.9706 28564.12606
561.1748 28716.49493
561.3789 28666.68833
561.5831 28693.59864
561.7872 28603.85665
561.9913 28903.55640
562.1954 28837.28413
562.3995 28974.33420
562.6036 28979.37220
562.8076 28788.27624
563.0117 29081.36105
563.2157 28955.96392
563.4197 29184.72203
563.6237 29400.33218
563.8277 29059.83690
564.0316 28904.12983
564.2356 29313.84646
564.4395 29299.94075
564.6434 29462.83619
564.8473 29661.91923
565.0512 29639.98548
565.2551 29620.40690
565.4590 29666.99819
565.6628 29852.29840
565.8666 30088.01961
566.0705 29865.56924
566.2743 29863.17312
566.4780 29957.74831
566.6818 29858.15559
566.8856 30378.23726
567.0893 29931.02232
567.2930 30160.35386
567.4967 29828.66484
567.7004 30082.83825
567.9041 30261.48256
568.1078 30262.58846
568.3114 30488.78661
568.5151 30431.40253
568.7187 30082.44913
568.9223 30239.99937
569.1259 30404.53318
569.3295 30792.99189
569.5330 30778.65611
569.7366 30753.09746
569.9401 30830.06012
570.1436 30914.82555
570.3471 30983.61682
570.5506 30954.92478
570.7541 30975.85502
570.9575 30953.20448
571.1609 30618.40255
571.3644 31194.90576
571.5678 31113.02797
571.7712 31479.51197
571.9746 31388.56168
572.1779 31147.24952
572.3813 31063.13945
572.5846 31255.21844
572.7879 31191.42421
572.9912 31833.62625
573.1945 31664.15684
573.3978 31229.20923
573.6010 31574.39437
573.8043 32081.86054
574.0075 31300.45807
574.2107 31433.06404
574.4139 31447.37934
574.6171 31577.58920
574.8203 31377.46169
575.0234 31785.86762
575.2266 31280.75661
575.4297 31428.82475
575.6328 31633.37587
575.8359 31894.43044
576.0390 31254.54261
576.2420 31360.77075
576.4451 31138.34086
576.6481 31481.94906
576.8512 31973.72779
577.0542 31292.90106
577.2571 31720.02542
577.4601 31720.74221
577.6631 31602.88161
577.8660 31508.92080
578.0689 31325.07465
578.2719 31587.17369
578.4748 31342.62574
578.6776 31299.84367
578.8805 31432.47013
579.0834 30911.42592
579.2862 31386.96427
579.4890 31729.38464
579.6918 31553.73036
579.8946 31216.24559
580.0974 31684.92324
580.3002 31339.86098
580.5029 31193.45170
580.7057 31575.29547
580.9084 31133.83533
581.1111 31728.72929
581.3138 31475.10884
581.5164 31226.52639
581.7191 31063.05753
581.9217 31217.67917
582.1244 31239.22380
582.3270 31268.59167
582.5296 31227.73470
582.7322 31465.21715
582.9347 31373.20192
583.1373 31049.97101
583.3398 31319.27890
583.5424 31074.44423
583.7449 30964.32495
583.9474 30824.96068
584.1498 30778.06220
584.3523 31217.29005
584.5548 30834.23798
584.7572 30999.26330
584.9596 31207.37789
585.1620 31753.69403
585.3644 30878.47410
585.5668 30962.56370
585.7691 31303.50954
585.9715 31103.62779
586.1738 31386.77995
586.3761 31357.65783
586.5784 31552.97261
586.7807 31472.87655
586.9830 31431.11847
587.1852 31357.69879
587.3875 31114.50250
587.5897 31631.14358
587.7919 31338.26357
587.9941 31005.87824
588.1963 31138.68901
588.3984 31546.68535
588.6006 31007.59853
588.8027 31556.08552
589.0048 31219.17419
589.2069 31376.56058
589.4090 31340.86449
589.6111 31576.01226
589.8131 31512.95530
590.0152 31697.96880
590.2172 31592.53937
590.4192 31906.88209
590.6212 31646.56478
590.8232 31409.57384
591.0252 31804.42222
591.2271 31871.34983
591.4291 31861.84726
591.6310 31713.20569
591.8329 31717.24019
592.0348 32080.07881
592.2367 32027.77369
592.4385 32387.31508
592.6404 32456.90506
592.8422 32506.81406
593.0440 32639.85011
593.2458 32895.92812
593.4476 32991.75258
593.6494 33073.24125
593.8512 33254.71177
594.0529 33532.17057
594.2546 33420.12620
594.4563 33383.36516
594.6580 33105.23053
594.8597 33059.45842
595.0614 33164.41682
595.2630 33438.16881
595.4647 33379.63786
595.6663 33091.48866
595.8679 33466.94277
596.0695 33918.90899
596.2711 33683.90458
596.4727 33759.10599
596.6742 34083.79095
596.8757 34187.60249
597.0773 34099.66271
597.2788 33766.35580
597.4802 34096.48836
597.6817 34655.70671
597.8832 34275.11220
598.0846 34656.71021
598.2860 34615.32076
598.4875 34295.01845
598.6889 34856.81724
598.8902 34903.90004
599.0916 34961.50940
599.2930 34573.50124
599.4943 35108.30780
599.6956 35125.18306
599.8969 34897.03935
600.0982 34582.08223
600.2995 34716.87953
600.5008 35484.92925
600.7020 34890.05577
600.9032 35384.25111
601.1045 35160.75628
601.3057 34873.18051
601.5068 35575.12180
601.7080 35610.75645
601.9092 35409.93264
602.1103 35937.14123
602.3115 35859.05219
602.5126 36028.66496
602.7137 35931.55028
602.9147 35917.27594
603.1158 36127.35657
603.3169 36385.05248
603.5179 36191.80615
603.7189 36029.13599
603.9199 36261.66236
604.1209 36210.13547
604.3219 36251.21772
604.5229 36323.75678
604.7238 36532.64959
604.9247 36536.00826
605.1257 36667.24209
605.3266 36859.79212
605.5275 36472.86938
605.7283 36612.41797
605.9292 36784.54974
606.1300 36196.92607
606.3309 36464.84134
606.5317 36824.52609
606.7325 36968.74405
606.9332 37010.64549
607.1340 37264.42978
607.3348 37149.80497
607.5355 36593.20802
607.7362 37576.45830
607.9369 36839.29195
608.1376 37106.03988
608.3383 36848.03678
608.5390 37733.04599
608.7396 37297.46352
608.9402 37899.99640
609.1409 37863.41968
609.3415 37528.39247
609.5421 37441.55860
609.7426 37743.38823
609.9432 37287.36703
610.1437 37146.32342
610.3443 37976.07844
610.5448 37743.94118
610.7453 38045.50458
610.9457 37788.66882
611.1462 37999.95776
611.3467 37845.45900
611.5471 38212.35260
611.7475 37732.82071
611.9479 38495.62763
612.1483 37950.74507
612.3487 38501.68962
612.5491 38305.98573
612.7494 38918.88134
612.9497 38275.98299
613.1501 38693.44094
613.3504 38475.96713
613.5506 39091.50462
613.7509 38798.58365
613.9512 38631.87900
614.1514 38845.25686
614.3516 39222.88182
614.5519 39062.05483
614.7521 39226.52720
614.9522 38859.28545
615.1524 38883.98395
615.3526 39327.69686
615.5527 39948.39523
615.7528 39548.69317
615.9529 39580.00661
616.1530 39962.07566
616.3531 39975.63321
616.5532 39845.09568
616.7532 39388.05050
616.9532 39784.51677
617.1533 39560.20275
617.3533 39943.31626
617.5532 39642.85877
617.7532 39869.22075
617.9532 39030.16796
618.1531 40059.35417
618.3530 39485.18565
618.5530 39785.11068
618.7528 39973.97436
618.9527 40014.44222
619.1526 39586.29387
619.3524 39666.77904
619.5523 39931.82716
619.7521 40039.32504
619.9519 40098.16318
620.1517 40121.16187
620.3515 40401.89743
620.5512 40719.59882
620.7510 40484.73776
620.9507 40172.25869
621.1504 40185.01754
621.3501 40327.72000
621.5498 40560.90172
621.7495 40629.22196
621.9492 40283.17668
622.1488 40077.43774
622.3484 40171.66478
622.5480 40108.85358
622.7476 40822.01774
622.9472 40126.44563
623.1468 40331.95929
623.3463 41460.30816
623.5459 41116.84332
623.7454 40873.36031
623.9449 40919.68537
624.1444 40878.37784
624.3439 41257.02678
624.5433 41039.83969
624.7428 40862.52656
624.9422 40937.29790
625.1416 41057.37030
625.3410 41058.25093
625.5404 40947.00527
625.7398 40952.76006
625.9391 41142.21765
626.1385 40759.06318
626.3378 40844.03340
626.5371 41503.99133
626.7364 40885.15661
626.9357 41316.64315
627.1350 41253.83195
627.3342 40895.68317
627.5335 40675.28078
627.7327 40930.56008
627.9319 40978.74878
628.1311 41957.96456
628.3303 41195.01428
628.5294 41466.14487
628.7286 41569.23961
628.9277 41915.65353
629.1268 41662.36075
629.3259 42267.74032
629.5250 42223.13556
629.7241 42106.13510
629.9231 41365.40528
630.1222 42184.67470
630.3212 42027.14495
630.5202 41667.03012
630.7192 42255.16579
630.9182 41606.22593
631.1171 41834.08293
631.3161 41686.89542
631.5150 41503.23358
631.7140 41778.37818
631.9129 41962.55201
632.1118 42387.79224
632.3106 42172.61217
632.5095 41970.74389
632.7083 41954.58541
632.9072 42023.99107
633.1060 42072.50745
633.3048 42116.94838
633.5036 41641.20524
633.7023 41956.24427
633.9011 42411.81492
634.0998 42280.29436
634.2986 42453.06101
634.4973 42186.21068
634.6960 42290.32941
634.8947 42168.84390
635.0933 42478.27150
635.2920 42119.85649
635.4906 41754.02783
635.6892 42600.71955
635.8878 42620.66677
636.0864 42644.40273
636.2850 42344.82586
636.4836 42346.17752
636.6821 42415.50126
636.8806 42588.16551
637.0792 42502.33514
637.2777 42472.29143
637.4761 42542.20909
637.6746 42316.19526
637.8731 42627.69130
638.0715 42119.34450
638.2699 42844.93983
638.4683 42548.82403
638.6667 41790.23592
638.8651 42621.34260
639.0635 42856.18318
639.2618 42841.47876
639.4602 42753.55946
639.6585 42664.18611
639.8568 42797.79559
640.0551 42844.10016
640.2534 42769.55410
640.4516 42512.39066
640.6499 42717.74049
640.8481 43448.23046
641.0463 43243.16735
641.2445 43494.51456
641.4427 43304.23778
641.6409 42994.23675
641.8390 43324.79939
642.0372 43631.31887
642.2353 43410.19968
642.4334 42884.73186
642.6315 43172.59435
642.8296 43141.23995
643.0277 42948.23937
643.2257 43642.76701
643.4237 43678.34023
643.6218 43611.92460
643.8198 43286.23613
644.0178 43484.02896
644.2157 43370.18237
644.4137 43325.06562
644.6116 44027.31411
644.8096 44326.13323
645.0075 43204.27642
645.2054 43818.83089
645.4033 43698.55368
645.6011 43646.63768
645.7990 43654.33804
645.9968 43828.59970
646.1947 43776.11026
646.3925 43944.18705
646.5903 43736.93262
646.7881 44005.27796
646.9858 43759.50123
647.1836 43557.61247
647.3813 43335.28499
647.5790 43768.90141
647.7767 44422.94071
647.9744 43514.13410
648.1721 43486.69132
648.3698 44257.87443
648.5674 43410.44544
648.7650 43928.60201
648.9627 43597.75266
649.1603 44433.16007
649.3578 44019.73662
649.5554 44120.96772
649.7530 44581.43301
649.9505 43514.54369
650.1480 44143.08578
650.3455 44486.05911
650.5430 43874.59708
650.7405 44057.13253
650.9380 43842.95596
651.1354 44199.24108
651.3329 43856.98455
651.5303 44311.51073
651.7277 44315.99578
651.9251 44394.51490
652.1225 44235.79732
652.3198 44112.40721
652.5172 44300.24690
652.7145 44594.88817
652.9118 44419.17245
653.1091 44412.61895
653.3064 44707.97700
653.5037 44373.27747
653.7009 44060.08161
653.8982 44414.48260
654.0954 44849.47116
654.2926 44971.05907
654.4898 44871.85546
654.6870 44835.54497
654.8841 45433.46993
655.0813 44916.68550
655.2784 44932.02478
655.4755 45361.31999
655.6726 45558.82610
655.8697 44879.33055
656.0668 45298.91838
656.2639 44942.44894
656.4609 44977.91976
656.6579 45080.31820
656.8550 45276.67744
657.0520 45110.81245
657.2490 44494.66058
657.4459 45131.70173
657.6429 45285.85234
657.8398 45106.28644
658.0367 45538.32593
658.2337 45336.29381
658.4305 45473.46676
658.6274 45542.95434
658.8243 45466.95422
659.0211 45733.72263
659.2180 45705.76785
659.4148 45901.84038
659.6116 46118.84315
659.8084 46025.51722
660.0052 46502.44818
660.2019 46118.18780
660.3987 45881.60645
660.5954 45938.13039
660.7921 46035.85946
660.9888 45675.04832
661.1855 46088.84041
661.3822 46265.68251
661.5788 45661.36789
661.7755 45952.50713
661.9721 45586.96519
662.1687 46074.70943
662.3653 45989.22721
662.5619 46171.43499
662.7584 45692.08742
662.9550 45876.77325
663.1515 46177.41506
663.3480 45826.45465
663.5445 46482.02993
663.7410 45850.14965
663.9375 46007.90468
664.1340 46106.08431
664.3304 46414.61080
664.5268 45993.75322
664.7233 46483.97550
664.9197 46372.03353
665.1160 46392.06266
665.3124 46168.95695
665.5088 46245.75577
665.7051 46302.01348
665.9014 46346.49536
666.0977 46106.26862
666.2940 45992.66780
666.4903 46289.93046
666.6866 46377.13297
666.8828 46094.16513
667.0791 46105.40848
667.2753 46401.64716
667.4715 46255.79082
667.6677 46779.39499
667.8639 47034.61286
668.0600 46222.47037
668.2562 46463.84397
668.4523 46392.90233
668.6484 46494.52254
668.8445 46074.52511
669.0406 47124.27293
669.2367 47009.09517
669.4327 47130.02772
669.6287 46879.29491
669.8248 46671.83567
670.0208 46909.05189
670.2168 46840.21966
670.4128 46896.25209
670.6087 46821.11212
670.8047 46749.69945
671.0006 47476.93315
671.1965 46376.53906
671.3924 47078.02980
671.5883 46555.87968
671.7842 46771.69463
671.9801 46189.94863
672.1759 46596.28611
672.3717 46380.94219
672.5675 47147.55833
672.7633 46958.55130
672.9591 47179.77288
673.1549 47610.21495
673.3506 47015.13667
673.5464 46589.91692
673.7421 47167.62843
673.9378 47005.32690
674.1335 46781.32008
674.3292 47100.74177
674.5249 46609.49550
674.7205 45851.64467
674.9161 46220.72960
675.1118 46242.47903
675.3074 46251.22385
675.5030 46237.01095
675.6985 46750.64151
675.8941 46611.68683
676.0896 46681.19489
676.2852 46770.50681
676.4807 46646.87093
676.6762 46834.85399
676.8717 47251.36987
677.0671 47028.28463
677.2626 47555.41131
677.4580 47096.27720
677.6534 47194.64114
677.8489 46733.82769
678.0442 46831.04476
678.2396 46125.64241
678.4350 46464.37644
678.6303 46593.74663
678.8257 46343.36197
679.0210 46727.37659
679.2163 46371.97209
679.4116 46626.08405
679.6069 46373.89718
679.8021 45916.89295
679.9974 45887.72988
680.1926 46362.73575
680.3878 46160.02780
680.5830 46126.07248
680.7782 46287.84153
680.9734 46065.82124
681.1685 46082.67602
681.3636 46026.11113
681.5588 46061.52051
681.7539 45968.54272
681.9490 46030.32994
682.1441 45944.31525
682.3391 45589.66851
682.5342 46309.77528
682.7292 46451.37184
682.9242 46477.74967
683.1192 46179.44255
683.3142 46707.83896
683.5092 46682.97662
683.7041 46831.61820
683.8991 46680.08899
684.0940 46519.11864
684.2889 45999.34418
684.4838 46438.20340
684.6787 46025.86537
684.8736 45205.67437
685.0684 46009.97313
685.2633 45646.11053
685.4581 45827.25336
685.6529 46147.28944
685.8477 46495.23933
686.0425 46419.30065
686.2372 46079.52215
686.4320 45914.55827
686.6267 46037.29304
686.8214 45772.67499
687.0161 45678.83707
687.2108 45830.12052
687.4055 45643.98064
687.6002 45965.71653
687.7948 45871.85812
687.9894 46287.47290
688.1841 45906.38687
688.3787 45989.37057
688.5732 45581.31279
688.7678 45923.83557
688.9624 45663.98929
689.1569 45628.92807
689.3514 45360.82848
689.5459 44980.78692
689.7404 45143.37516
689.9349 45298.77503
690.1294 45363.98235
690.3238 45436.78764
690.5182 45560.58735
690.7127 45609.08325
690.9071 45473.85587
691.1015 45188.26663
691.2958 45396.07402
691.4902 45658.54170
691.6845 46538.53339
691.8789 45717.62559
692.0732 45650.22694
692.2675 45493.94645
692.4618 45675.56032
692.6560 45488.96988
692.8503 46084.49872
693.0445 45998.60691
693.2387 45257.56989
693.4329 45754.81671
693.6271 45631.09891
693.8213 45689.65034
694.0155 45928.56638
694.2096 45598.57717
694.4038 45247.14573
694.5979 45295.25252
694.7920 45264.28723
694.9861 45289.80492
695.1801 45207.45610
695.3742 45090.59900
695.5682 45110.77149
695.7623 45031.65846
695.9563 44762.51441
696.1503 45195.29116
696.3443 44446.79955
696.5382 45009.97047
696.7322 44955.24875
696.9261 45346.79989
697.1201 44792.16900
697.3140 45103.89032
697.5079 45291.87337
697.7017 44511.84303
697.8956 44622.55622
698.0894 44304.58860
698.2833 44853.79238
698.4771 44919.77793
698.6709 45234.50977
698.8647 44548.60407
699.0585 45212.28930
699.2522 44325.70315
699.4460 44689.44288
699.6397 44690.34399
699.8334 44469.26576
700.0271 44323.63470
700.2208 44548.29688
700.4144 44893.11338
700.6081 44699.62129
700.8017 44467.09492
700.9954 44986.88986
701.1890 44710.31168
701.3826 44201.51433
701.5761 44313.21054
701.7697 44395.86656
701.9632 44044.43513
702.1568 44270.40800
702.3503 44141.61124
702.5438 43862.30926
702.7373 43354.96597
702.9308 44130.04022
703.1242 44228.75231
703.3177 43893.64319
703.5111 44306.45225
703.7045 44412.41415
703.8979 44496.91334
704.0913 44358.59353
704.2847 44555.75148
704.4780 44809.72009
704.6713 43828.25154
704.8647 44088.46645
705.0580 43884.28397
705.2513 43348.59678
705.4445 43923.11346
705.6378 43899.45942
705.8311 43063.04850
706.0243 43148.73551
706.2175 43766.09569
706.4107 43485.68781
706.6039 43506.10606
706.7971 43458.87990
706.9902 43710.67766
707.1834 43558.24734
707.3765 43096.73759
707.5696 43116.72576
707.7627 43326.00769
707.9558 43409.52385
708.1489 42898.82189
708.3419 42477.65711
708.5349 42632.87266
708.7280 42578.94965
708.9210 43313.74035
709.1140 43143.61559
709.3069 42869.98649
709.4999 42722.98329
709.6929 43042.52785
709.8858 42643.74738
710.0787 42754.17385
710.2716 42088.17442
710.4645 42654.11010
710.6574 42709.32334
710.8502 42985.69672
711.0431 42478.49678
711.2359 42181.76659
711.4287 42169.35590
711.6215 42445.13537
711.8143 42373.02639
712.0071 42336.77734
712.1998 42139.53747
712.3925 42396.10700
712.5853 42619.84758
712.7780 42649.25641
712.9707 42321.41758
713.1633 42362.29503
713.3560 42315.82662
713.5487 42159.17749
713.7413 42355.00426
713.9339 42278.49215
714.1265 42007.99644
714.3191 42033.47317
714.5117 41528.28024
714.7042 41949.30165
714.8968 42052.23256
715.0893 42646.57358
715.2818 42534.54968
715.4743 42529.12257
715.6668 42108.71554
715.8592 42482.46984
716.0517 42198.80569
716.2441 42320.45503
716.4366 41949.26070
716.6290 42082.31722
716.8214 42152.86975
717.0137 42264.42261
717.2061 42147.91366
717.3984 42013.73075
717.5908 41722.40720
717.7831 41542.32930
717.9754 42095.26039
718.1677 41078.75110
718.3600 41760.72469
718.5522 41376.05472
718.7445 41365.52816
718.9367 41030.41904
719.1289 41211.31612
719.3211 41018.41794
719.5133 41090.44500
719.7054 41043.95611
719.8976 41374.80546
720.0897 41258.95187
720.2818 41244.80040
720.4740 41263.45740
720.6660 41313.12064
720.8581 41264.56330
721.0502 40996.91427
721.2422 40770.22461
721.4343 40977.15137
721.6263 41133.63666
721.8183 40940.43129
722.0103 41402.24824
722.2022 41170.74585
722.3942 41327.82506
722.5861 41006.10965
722.7781 41521.99298
722.9700 41101.79075
723.1619 40919.84920
723.3538 40710.28056
723.5456 40953.14918
723.7375 40680.35974
723.9293 40859.76180
724.1211 40488.46507
724.3129 40538.31263
724.5047 40031.17412
724.6965 40115.34564
724.8883 40367.04100
725.0800 40183.35868
725.2718 40555.08549
725.4635 40140.63805
725.6552 39962.36237
725.8469 40198.02214
726.0385 40570.32238
726.2302 40217.41640
726.4218 39552.97342
726.6135 39600.77301
726.8051 39507.87715
726.9967 39852.81653
727.1882 40073.85379
727.3798 40413.03838
727.5714 40117.31169
727.7629 40456.55771
727.9544 40415.00443
728.1459 39815.97357
728.3374 39589.85734
728.5289 40370.85022
728.7204 39899.40781
728.9118 40415.82361
729.1032 40602.33213
729.2946 40320.63403
729.4860 39611.46341
729.6774 39936.72180
729.8688 39941.22734
730.0602 39680.09084
730.2515 39922.14027
730.4428 40155.34247
730.6341 39867.23423
730.8254 39665.48882
731.0167 40079.38331
731.2080 40085.73201
731.3992 39919.72366
731.5905 39797.19369
731.7817 39866.21024
731.9729 39216.26688
732.1641 39551.37600
732.3553 39019.78476
732.5464 39402.12004
732.7376 39339.00165
732.9287 39438.22573
733.1198 39384.28223
733.3109 39495.60982
733.5020 39239.30653
733.6931 39852.30453
733.8841 39667.92591
734.0752 39959.82289
734.2662 39441.37960
734.4572 39291.12014
734.6482 38823.15928
734.8392 38829.65134
735.0302 38742.14163
735.2211 38547.68700
735.4120 38493.72302
735.6030 39015.01299
735.7939 38871.08175
735.9848 38861.96828
736.1756 38441.66366
736.3665 38676.97527
736.5574 38292.61249
736.7482 38328.86154
736.9390 38146.67424
737.1298 38484.26141
737.3206 38624.87494
737.5114 38831.16683
737.7021 38282.80272
737.8929 38317.10620
738.0836 38438.96034
738.2743 38688.66917
738.4650 38719.61398
738.6557 38354.21539
738.8463 38096.29421
739.0370 38045.97562
739.2276 37799.91217
739.4182 37823.95532
739.6088 38154.10837
739.7994 37862.21138
739.9900 38018.30756
740.1806 37996.47621
740.3711 38067.02873
740.5617 38346.28975
740.7522 38146.28513
740.9427 38109.91320
741.1332 38117.61356
741.3236 37705.00930
741.5141 37911.97702
741.7045 38207.68323
741.8949 38185.74948
742.0854 38024.98394
742.2758 38096.56044
742.4661 37587.47637
742.6565 37148.04372
742.8469 37364.06346
743.0372 37732.80023
743.2275 37373.97563
743.4178 37641.62467
743.6081 37724.01445
743.7984 37688.80987
743.9886 37700.99528
744.1789 37539.26719
744.3691 37338.15666
744.5593 37285.76962
744.7495 37008.20841
744.9397 37204.46526
745.1299 36983.20271
745.3200 36486.28358
745.5102 36789.05527
745.7003 36859.40300
745.8904 37046.34159
746.0805 37048.61483
746.2706 36941.64943
746.4607 37016.91228
746.6507 36958.79093
746.8408 36549.01286
747.0308 36980.82707
747.2208 36612.97092
747.4108 36732.28558
747.6007 36953.13853
747.7907 37331.88987
747.9806 37009.45767
748.1706 36984.73869
748.3605 36656.94081
748.5504 36579.56855
748.7403 37039.00986
748.9302 36500.94703
749.1200 36550.18020
749.3098 36477.88690
749.4997 36212.92071
749.6895 36374.44400
749.8793 36294.36842
750.0691 36744.71675
750.2588 36440.83915
750.4486 36208.14894
750.6383 36381.75525
750.8280 35786.86129
751.0177 35723.31282
751.2074 35793.72198
751.3971 35952.74676
751.5868 35930.93589
751.7764 35741.21206
751.9660 35469.63093
752.1557 35597.17842
752.3453 35766.27920
752.5348 35996.40945
752.7244 36245.70869
752.9140 36275.44519
753.1035 36007.42752
753.2930 36097.74294
753.4825 35727.18348
753.6720 35996.98288
753.8615 35962.10597
754.0510 35581.42954
754.2404 35610.92029
754.4299 35652.80125
754.6193 35558.14414
754.8087 35362.46072
754.9981 35487.10010
755.1875 35245.03020
755.3768 35077.07628
755.5662 35238.27190
755.7555 35275.97500
755.9448 35283.14289
756.1341 35268.56136
756.3234 34787.35014
756.5127 34837.87353
756.7019 35105.33825
756.8912 35238.33334
757.0804 35072.36595
757.2696 35152.66680
757.4588 34842.07186
757.6480 34616.57003
757.8371 34285.72067
758.0263 34364.26028
758.2154 34459.44986
758.4045 34149.18260
758.5936 33991.03845
758.7827 34362.27375
758.9718 34580.87393
759.1609 34230.34360
759.3499 34237.85964
759.5389 33678.53890
759.7280 34070.00812
759.9170 34211.76852
760.1059 34163.90749
760.2949 34086.47379
760.4839 34440.75191
760.6728 34222.62276
760.8617 34178.57095
761.0506 33749.52150
761.2395 33506.07945
761.4284 33777.70155
761.6173 33647.08210
761.8061 33684.72376
761.9950 33674.40200
762.1838 33365.65023
762.3726 33831.82936
762.5614 33431.02140
762.7502 33802.72772
762.9389 33077.89014
763.1277 33230.52525
763.3164 33655.23301
763.5051 33532.76448
763.6938 33795.49839
763.8825 33432.92601
764.0712 34094.09224
764.2598 33600.08122
764.4484 33792.18068
764.6371 33816.42863
764.8257 33619.25020
765.0143 33794.02386
765.2029 33381.74727
765.3914 33464.32137
765.5800 33704.11803
765.7685 33197.45056
765.9570 33313.83662
766.1455 32845.26137
766.3340 32541.34281
766.5225 32827.05493
766.7110 32741.75703
766.8994 32491.82293
767.0878 32240.10709
767.2762 32529.66939
767.4646 32423.03166
767.6530 32503.25059
767.8414 32600.91822
768.0298 32281.72181
768.2181 32152.92506
768.4064 32243.95727
768.5947 32240.82388
768.7830 32182.84588
768.9713 32086.40703
769.1596 31863.44467
769.3478 31754.86137
769.5360 31969.09938
769.7243 31902.37656
769.9125 31574.12813
770.1007 31375.51612
770.2888 31400.74710
770.4770 31540.37760
770.6651 31487.00754
770.8533 31235.31218
771.0414 31046.61234
771.2295 31311.53758
771.4176 31500.11454
771.6056 31628.44026
771.7937 31320.71248
771.9817 31046.94001
772.1698 31632.78195
772.3578 31554.83626
772.5458 31175.42957
772.7337 30696.14345
772.9217 31076.26693
773.1096 30881.75085
773.2976 31144.56668
773.4855 31471.50442
773.6734 30721.02627
773.8613 30809.64188
774.0492 31002.76533
774.2370 30750.31222
774.4249 30833.99222
774.6127 31051.93706
774.8005 30836.12211
774.9883 30877.63444
775.1761 30978.76313
775.3639 30475.94585
775.5516 30560.32216
775.7394 30337.87179
775.9271 30422.49386
776.1148 30439.79920
776.3025 29729.48172
776.4902 29888.56793
776.6778 29822.72573
776.8655 30243.39900
777.0531 30407.13410
777.2407 30403.12008
777.4283 30003.68425
777.6159 30139.71034
777.8035 29895.69486
777.9911 29698.08636
778.1786 29968.84830
778.3661 29460.82918
778.5536 29769.35567
778.7411 29888.03546
778.9286 30140.48857
779.1161 29864.85245
779.3036 29467.75131
779.4910 29491.87638
779.6784 29651.41315
779.8658 29845.17147
780.0532 29260.70167
780.2406 29595.07353
780.4280 29345.42614
780.6153 29486.49023
780.8026 29476.22990
780.9900 29688.01035
781.1773 29093.81270
781.3646 29492.51125
781.5518 29295.80385
781.7391 29163.42315
781.9263 29296.04961
782.1136 29153.96154
782.3008 28799.92918
782.4880 28929.25841
782.6752 28819.34393
782.8623 28774.26813
783.0495 29127.19459
783.2366 28506.98773
783.4237 28676.96914
783.6108 28956.43495
783.7979 28755.77498
783.9850 28809.04264
784.1721 28957.39750
784.3591 28496.72741
784.5462 28388.59466
784.7332 28500.70047
784.9202 28671.84922
785.1072 28279.56080
785.2941 28248.69791
785.4811 28094.09675
785.6681 28244.02854
785.8550 28281.42445
786.0419 28007.28336
786.2288 27884.91722
786.4157 27759.97065
786.6025 27757.94316
786.7894 27914.03934
786.9762 27796.62929
787.1631 27249.80115
787.3499 27617.57538
787.5367 27772.15606
787.7234 27337.69997
787.9102 27667.38198
788.0970 27736.78764
788.2837 27796.64977
788.4704 27234.72810
788.6571 26932.81655
788.8438 26918.80845
789.0305 26871.72564
789.2171 26859.68359
789.4038 26728.22447
789.5904 26973.63257
789.7770 26987.53828
789.9636 26987.64067
790.1502 27032.42975
790.3368 27041.56369
790.5233 27137.38815
790.7099 26860.60517
790.8964 26397.55944
791.0829 26408.41367
791.2694 26281.09146
791.4559 26367.70005
791.6423 26304.84789
791.8288 26420.41477
792.0152 26615.68859
792.2016 26593.11998
792.3880 26853.94927
792.5744 26362.43677
792.7608 25913.58346
792.9471 25983.50112
793.1335 26532.25434
793.3198 26189.24006
793.5061 26283.07799
793.6924 25809.07562
793.8787 25653.69623
794.0650 25690.39583
794.2512 26092.61689
794.4375 26156.82071
794.6237 26230.28135
794.8099 26198.59928
794.9961 25711.94046
795.1823 25683.55561
795.3684 25744.62604
795.5546 25377.93724
795.7407 25361.75828
795.9268 25281.04784
796.1129 25606.87966
796.2990 25660.55692
796.4851 25996.56716
796.6712 25755.93083
796.8572 25676.65396
797.0432 25388.23852
797.2292 25649.72317
797.4152 25625.41378
797.6012 25052.71980
797.7872 24874.13692
797.9731 24927.38411
798.1591 24806.77923
798.3450 24660.71810
798.5309 24880.73138
798.7168 24832.76796
798.9027 24832.64508
799.0885 25036.04933
799.2744 24862.77070
799.4602 25164.51841
799.6460 25116.04299
799.8318 25560.34981
800.0176 24973.54533
800.2034 25136.89132
800.3892 24584.10359
800.5749 24514.94369
800.7606 24435.29818
800.9463 24646.42328
801.1320 24538.88444
801.3177 24586.60211
801.5034 24508.14443
801.6890 24880.21939
801.8747 24398.96722
802.0603 24114.36100
802.2459 24078.46011
802.4315 24189.97200
802.6171 23872.12725
802.8026 24180.30559
802.9882 24048.70312
803.1737 23855.04720
803.3592 24116.38849
803.5447 24011.92160
803.7302 24280.16455
803.9157 24153.27240
804.1012 24220.28194
804.2866 23698.64382
804.4720 23798.93285
804.6574 23733.35689
804.8428 23557.62069
805.0282 23546.13159
805.2136 23385.69372
805.3989 23690.06283
805.5843 23512.29915
805.7696 23415.63502
805.9549 23292.67498
806.1402 23069.54878
806.3255 23028.07741
806.5107 23235.70049
806.6960 23432.75604
806.8812 22964.75422
807.0664 23157.89815
807.2516 22872.65707
807.4368 22708.53285
807.6220 22588.46044
807.8072 22623.80838
807.9923 22775.66527
808.1774 22661.08141
808.3625 22905.56792
808.5476 22889.40945
808.7327 23025.35362
808.9178 22641.89195
809.1028 22598.33165
809.2879 22536.31916
809.4729 22480.43009
809.6579 22312.96769
809.8429 22407.07185
810.0279 22332.56675
810.2128 22125.16895
810.3978 22287.49095
810.5827 22471.64430
810.7676 22607.07648
810.9525 22703.22861
811.1374 22390.09419
811.3223 22375.49217
811.5072 22137.43628
811.6920 22237.17236
811.8768 22309.26086
812.0616 22171.67832
812.2464 22258.14356
812.4312 22023.83546
812.6160 22125.68094
812.8007 22246.61350
812.9855 22251.09855
813.1702 22054.69835
813.3549 22043.14780
813.5396 21662.12322
813.7243 21816.06903
813.9089 21787.80706
814.0936 21868.57895
814.2782 21872.38817
814.4628 21718.72907
814.6474 21771.40283
814.8320 21761.69546
815.0166 21434.81917
815.2012 21599.80353
815.3857 21388.28932
815.5702 21380.85519
815.7547 21421.63025
815.9392 21563.69784
816.1237 21314.05045
816.3082 21121.23419
816.4926 21297.05231
816.6771 21423.94445
816.8615 21069.85065
817.0459 21231.92690
817.2303 21110.58475
817.4147 21239.46343
817.5990 21264.18241
817.7834 20974.23099
817.9677 21006.54794
818.1520 21182.18174
818.3363 21095.81890
818.5206 20865.72961
818.7049 20749.38450
818.8891 20845.61856
819.0734 20919.40687
819.2576 21036.57116
819.4418 20641.47703
819.6260 20551.85792
819.8102 20661.48569
819.9944 20649.42315
820.1785 20424.12611
820.3627 20579.01398
820.5468 20570.26916
820.7309 20331.47600
820.9150 20158.36120
821.0991 19986.76190
821.2831 20334.22028
821.4672 20175.93278
821.6512 20083.38507
821.8352 20070.72862
822.0192 20413.23091
822.2032 20157.68537
822.3872 20214.72130
822.5711 19961.20325
822.7551 19876.29447
822.9390 19937.20106
823.1229 20000.09418
823.3068 20005.58273
823.4907 19744.52816
823.6745 19743.25842
823.8584 19630.08766
824.0422 19766.42094
824.2261 19817.21057
824.4099 19872.54668
824.5937 20028.31519
824.7774 19988.09308
824.9612 19903.24574
825.1449 19587.38752
825.3287 19659.23026
825.5124 19570.53273
825.6961 19771.27463
825.8798 19702.17616
826.0634 19786.53200
826.2471 19625.99173
826.4307 19914.63244
826.6144 19740.45270
826.7980 19851.90316
826.9816 19575.71409
827.1652 19752.57668
827.3487 19663.26476
827.5323 19310.29734
827.7158 19165.32164
827.8993 19461.99039
828.0828 19232.72029
828.2663 18968.94191
828.4498 19191.92475
828.6333 19334.54529
828.8167 19047.87063
829.0001 19181.76683
829.1836 19263.17358
829.3670 19171.36314
829.5504 19442.80092
829.7337 19289.24422
829.9171 19237.26678
830.1004 19271.48834
830.2837 19195.46774
830.4671 19017.90885
830.6504 18876.04605
830.8336 19017.51973
831.0169 18798.59187
831.2002 19144.26852
831.3834 19055.20236
831.5666 18817.26935
831.7498 18821.34480
831.9330 19146.97184
832.1162 19063.02560
832.2993 18918.23421
832.4825 19018.25700
832.6656 18845.36748
832.8487 18417.95640
833.0318 18590.98928
833.2149 18479.80506
833.3980 18502.14840
833.5811 18650.64661
833.7641 18547.71570
833.9471 18405.27947
834.1301 18190.36563
834.3131 18007.93258
834.4961 18211.95122
834.6791 18282.07367
834.8620 18616.69129
835.0450 18484.02387
835.2279 18608.78613
835.4108 18511.20042
835.5937 18587.32342
835.7766 18316.54099
835.9594 18291.71961
836.1423 18336.03765
836.3251 18596.29352
836.5079 18510.79082
836.6907 18055.85505
836.8735 18023.12850
837.0563 18042.29749
837.2390 18146.19095
837.4218 17995.58332
837.6045 18287.60319
837.7872 18321.74283
837.9699 18157.63909
838.1526 17980.51027
838.3352 17919.80848
838.5179 17842.37478
838.7005 17945.40809
838.8831 18085.44819
839.0658 18072.01352
839.2483 18074.55300
839.4309 18104.26903
839.6135 18080.22587
839.7960 17668.31792
839.9786 17738.56325
840.1611 17618.65468
840.3436 17817.02093
840.5261 17624.28659
840.7085 17516.31768
840.8910 17392.16981
841.0734 17384.59233
841.2559 17332.43056
841.4383 17496.37046
841.6207 17705.65239
841.8030 17512.11934
841.9854 17494.93688
842.1678 17293.62156
842.3501 17397.06446
842.5324 17298.27045
842.7147 17471.81532
842.8970 17651.13546
843.0793 17618.94139
843.2615 17525.45162
843.4438 17567.14826
843.6260 17564.03535
843.8082 17467.61698
843.9904 17518.05845
844.1726 17330.42355
844.3548 17232.55113
844.5369 17142.21523
844.7191 17140.37205
844.9012 17057.32692
845.0833 17050.63006
845.2654 17342.79329
845.4475 17467.96514
845.6296 17175.82239
845.8116 17099.53556
845.9936 17055.42231
846.1757 17092.36767
846.3577 17053.78394
846.5397 17088.45605
846.7216 16949.56281
846.9036 16868.38133
847.0855 16663.52301
847.2675 16840.32415
847.4494 16796.16995
847.6313 17030.49853
847.8132 17124.62318
847.9950 16978.05005
848.1769 16913.29328
848.3587 17098.53205
848.5406 16859.61602
848.7224 16825.41494
848.9042 16670.28131
849.0860 16802.80537
849.2677 16635.17912
849.4495 16528.31611
849.6312 16506.62813
849.8129 16566.57217
849.9946 16716.89308
850.1763 16627.21253
850.3580 16454.75308
850.5397 16362.53304
850.7213 16109.17883
850.9029 16133.26294
851.0845 16299.66040
851.2661 16299.41465
851.4477 16261.71154
851.6293 16295.54399
851.8109 16258.33239
851.9924 16409.90256
852.1739 16466.83609
852.3554 16341.47992
852.5369 16229.18980
852.7184 16056.83275
852.8999 16021.32097
853.0813 16001.08704
853.2628 16080.69158
853.4442 16136.33490
853.6256 16094.41298
853.8070 16261.03571
853.9883 16254.42077
854.1697 16071.53716
854.3510 15949.84686
854.5324 15943.80535
854.7137 15963.42489
854.8950 15891.84839
855.0763 15891.88935
855.2575 15884.39378
855.4388 15923.24375
855.6200 15919.27069
855.8013 15939.17694
855.9825 15848.98440
856.1637 15874.87072
856.3449 15738.92656
856.5260 15797.90806
856.7072 15759.26289
856.8883 15986.15735
857.0694 15882.40725
857.2505 15892.56518
857.4316 15862.37812
857.6127 15710.00924
857.7938 15835.95932
857.9748 15828.11560
858.1558 15687.87070
858.3368 15586.66008
858.5178 15541.56381
858.6988 15681.62439
858.8798 15589.99827
859.0607 15728.89151
859.2417 15605.29660
859.4226 15585.10363
859.6035 15604.55933
859.7844 15682.79174
859.9653 15605.72667
860.1462 15443.73234
860.3270 15336.17303
860.5078 15290.23709
860.6887 15313.35865
860.8695 15234.57330
861.0503 15322.59499
861.2310 15107.47635
861.4118 15059.79964
861.5925 15011.44710
861.7733 14956.95065
861.9540 14824.97955
862.1347 14677.93539
862.3154 14652.43818
862.4960 14753.62831
862.6767 14784.94176
862.8573 14716.21192
863.0380 14666.89684
863.2186 14767.82074
863.3992 14706.75031
863.5797 14685.41048
863.7603 14688.66675
863.9409 14579.94008
864.1214 14672.91787
864.3019 14739.92740
864.4824 14741.85249
864.6629 14599.33435
864.8434 14398.53101
865.0238 14536.70746
865.2043 14604.12660
865.3847 14261.35807
865.5651 14200.88155
865.7455 14421.95978
865.9259 14390.56441
866.1063 14252.38796
866.2866 14212.24778
866.4670 14248.94737
866.6473 14141.85909
866.8276 14089.67685
867.0079 14044.37578
867.1882 13991.76346
867.3684 13868.51670
867.5487 13826.47190
867.7289 13848.67188
867.9091 13901.57092
868.0893 13707.75115
868.2695 13496.25742
868.4497 13446.40986
868.6299 13551.47066
868.8100 13601.95309
868.9901 13560.93227
869.1703 13632.95933
869.3504 13653.50046
869.5304 13616.67798
869.7105 13696.89692
869.8906 13621.18351
870.0706 13548.03007
870.2506 13680.98420
870.4306 13696.07773
870.6106 13633.94236
870.7906 13765.85203
870.9706 13571.13116
871.1505 13402.58333
871.3305 13427.17943
871.5104 13289.00298
871.6903 13241.92018
871.8702 13352.42857
872.0500 13328.01679
872.2299 13327.50480
872.4097 13160.98446
872.5896 13280.64727
872.7694 13257.95578
872.9492 13149.80255
873.1290 12890.40682
873.3087 12901.17914
873.4885 13215.74714
873.6682 13132.19002
873.8480 13037.77866
874.0277 13041.54692
874.2074 12846.55981
874.3870 12949.49072
874.5667 12979.37059
874.7463 13062.96867
874.9260 12903.71862
875.1056 12877.81182
875.2852 12783.17518
875.4648 12725.97541
875.6444 12670.16827
875.8239 12842.13620
876.0035 12749.79329
876.1830 12750.42816
876.3625 12631.01110
876.5420 12665.10978
876.7215 12668.59133
876.9010 12442.08599
877.0804 12506.12597
877.2599 12438.15389
877.4393 12582.63808
877.6187 12607.82810
877.7981 12637.29837
877.9775 12441.22584
878.1568 12691.71290
878.3362 12533.30251
878.5155 12490.27469
878.6948 12262.76584
878.8741 12258.97710
879.0534 12185.51646
879.2327 12152.44177
879.4119 12110.08977
879.5912 12025.07859
879.7704 12180.86757
879.9496 12272.78041
880.1288 12124.32315
880.3080 11917.76503
880.4872 12087.27540
880.6663 12053.32008
880.8455 12083.24090
881.0246 12110.25361
881.2037 12111.19568
881.3828 12016.57952
881.5619 11959.80983
881.7409 11902.65102
881.9200 11774.79633
882.0990 11916.74104
882.2780 11858.66065
882.4570 11791.13912
882.6360 11810.30811
882.8150 11604.22101
882.9940 11580.56697
883.1729 11582.75830
883.3518 11820.69131
883.5308 11755.99597
883.7096 11762.83619
883.8885 11558.30555
884.0674 11485.21355
884.2463 11474.78939
884.4251 11490.08771
884.6039 11363.50276
884.7827 11427.25603
884.9615 11339.99208
885.1403 11417.07763
885.3191 11461.14991
885.4978 11224.07705
885.6765 11289.40725
885.8553 11419.96526
886.0340 11368.13117
886.2127 11319.45096
886.3913 11200.54589
886.5700 11129.09226
886.7486 11054.23900
886.9273 10990.58813
887.1059 10889.47992
887.2845 10916.51310
887.4630 11007.70915
887.6416 11072.11777
887.8202 11094.11295
887.9987 11021.59438
888.1772 11035.37721
888.3557 11048.19750
888.5342 10941.80552
888.7127 11035.02906
888.8912 10948.89149
889.0696 10937.42287
889.2481 10755.31748
889.4265 10694.96385
889.6049 10617.71446
889.7833 10659.43159
889.9616 10595.67832
890.1400 10587.52740
890.3183 10267.30701
890.4967 10419.00006
890.6750 10610.79233
890.8533 10528.73022
891.0316 10478.37067
891.2098 10403.35358
891.3881 10378.30692
891.5663 10364.68793
891.7445 10337.36802
891.9227 10191.94176
892.1009 10212.25761
892.2791 10391.98735
892.4573 10428.03160
892.6354 10277.75165
892.8136 10299.48060
892.9917 10283.69076
893.1698 10148.01283
893.3479 10289.24076
893.5259 10438.68104
893.7040 10282.09335
893.8820 10205.56075
894.0601 10210.98787
894.2381 10257.53820
894.4161 10321.98778
894.5941 10291.53448
894.7720 10306.91473
894.9500 10279.02139
895.1279 10361.26782
895.3058 10227.57642
895.4838 10260.26200
895.6616 10097.81712
895.8395 10073.32341
896.0174 10034.37105
896.1952 10043.11587
896.3731 10114.48758
896.5509 10044.42657
896.7287 10065.52065
896.9065 10026.36349
897.0842 10030.47990
897.2620 9956.60967
897.4397 9900.10621
897.6175 9916.55140
897.7952 9928.67538
897.9729 10076.06769
898.1506 10066.99519
898.3282 9939.83681
898.5059 9880.83483
898.6835 9887.75696
898.8611 9982.96703
899.0388 9842.84501
899.2163 9683.10345
899.3939 9646.81344
899.5715 9772.94783
899.7490 9722.77260
899.9266 9768.07367
900.1041 9832.64612
900.2816 9826.19502
900.4591 9736.49399
900.6365 9732.64381
900.8140 9603.82657
900.9914 9656.54129
901.1689 9612.73524
901.3463 9552.58640
901.5237 9592.99282
901.7011 9553.26223
901.8784 9531.26704
902.0558 9431.30569
902.2331 9504.72537
902.4104 9613.67730
902.5878 9615.21328
902.7650 9515.12905
902.9423 9459.50622
903.1196 9523.13661
903.2968 9646.26049
903.4741 9615.90959
903.6513 9499.60545
903.8285 9416.31456
904.0057 9428.90956
904.1828 9301.48495
904.3600 9195.93264
904.5371 9223.84645
904.7143 9252.86617
904.8914 9308.07941
905.0685 9405.48080
905.2456 9395.34336
905.4226 9370.58341
905.5997 9424.17876
905.7767 9513.87979
905.9537 9296.42647
906.1307 9194.86770
906.3077 9132.75280
906.4847 9094.68106
906.6617 9112.74415
906.8386 9160.70758
907.0156 9079.19842
907.1925 8988.88300
907.3694 8983.64020
907.5463 9041.16764
907.7231 9037.44034
907.9000 9056.07685
908.0768 8998.63133
908.2537 8869.97793
908.4305 8890.53954
908.6073 9096.76999
908.7841 9046.20564
908.9608 8951.17989
909.1376 8905.28491
909.3143 8891.76832
909.4910 8792.52375
909.6677 8771.38872
909.8444 8833.91320
910.0211 8864.91945
910.1978 8784.49572
910.3744 8824.57447
910.5510 8845.95526
910.7277 8869.03587
910.9043 8784.59812
911.0808 8821.74827
911.2574 8788.79645
911.4340 8704.99357
911.6105 8581.99257
911.7870 8629.09585
911.9636 8637.14437
912.1401 8608.71856
912.3165 8659.22147
912.4930 8608.94384
912.6695 8531.03910
912.8459 8520.79926
913.0223 8528.19243
913.1987 8517.09244
913.3751 8464.62348
913.5515 8395.29974
913.7279 8424.48329
913.9042 8415.04215
914.0805 8375.47540
914.2568 8334.16787
914.4331 8338.28429
914.6094 8309.48985
914.7857 8277.00906
914.9620 8265.90907
915.1382 8213.82922
915.3144 8132.95494
915.4906 8288.82584
915.6668 8311.47638
915.8430 8210.12240
916.0192 8020.84913
916.1953 8141.49497
916.3715 8218.12996
916.5476 8135.94497
916.7237 8181.38940
916.8998 8153.39367
917.0759 8095.04704
917.2519 8018.55540
917.4280 8111.67654
917.6040 8095.90718
917.7800 8086.71180
917.9560 8070.92197
918.1320 8022.28271
918.3080 8046.12106
918.4839 7954.31063
918.6599 7919.35180
918.8358 7958.18129
919.0117 7976.10101
919.1876 7891.62230
919.3635 7911.59000
919.5394 7963.85416
919.7152 7900.42857
919.8911 7837.86312
920.0669 7819.26757
920.2427 7732.90472
920.4185 7676.97470
920.5942 7677.48669
920.7700 7643.14225
920.9458 7715.74275
921.1215 7715.84514
921.2972 7703.72117
921.4729 7711.83113
921.6486 7563.86538
921.8243 7433.10258
921.9999 7449.71160
922.1756 7469.80218
922.3512 7481.00457
922.5268 7414.75278
922.7024 7521.98442
922.8780 7568.41187
923.0535 7572.26205
923.2291 7512.72760
923.4046 7552.99067
923.5801 7679.78041
923.7557 7553.95321
923.9311 7493.45622
924.1066 7463.98595
924.2821 7539.43312
924.4575 7523.29512
924.6330 7506.74753
924.8084 7381.43233
924.9838 7310.49069
925.1592 7309.65102
925.3345 7277.19072
925.5099 7272.93094
925.6852 7255.62561
925.8606 7249.48170
926.0359 7185.07308
926.2112 7173.87069
926.3864 7132.33789
926.5617 7048.24829
926.7370 7084.19014
926.9122 7031.43447
927.0874 6980.27621
927.2626 6979.55942
927.4378 6988.89816
927.6130 6973.14928
927.7882 6938.74340
927.9633 6878.79936
928.1384 6818.85531
928.3135 6723.07181
928.4886 6671.91355
928.6637 6717.82901
928.8388 6742.09744
929.0139 6760.48820
929.1889 6704.33290
929.3639 6689.64896
929.5389 6697.02165
929.7139 6679.28624
929.8889 6707.56869
930.0639 6755.24540
930.2388 6664.41799
930.4138 6611.49847
930.5887 6653.72759
930.7636 6702.40781
930.9385 6662.30858
931.1134 6527.24504
931.2882 6515.14155
931.4631 6437.54401
931.6379 6426.30066
931.8127 6401.29496
931.9875 6424.12981
932.1623 6399.24699
932.3371 6405.26802
932.5118 6408.54477
932.6866 6383.58003
932.8613 6333.95775
933.0360 6324.20942
933.2107 6273.54267
933.3854 6231.31356
933.5600 6244.29768
933.7347 6131.57748
933.9093 6133.03154
934.0839 6159.98280
934.2586 6184.21028
934.4331 6167.80605
934.6077 6123.87712
934.7823 6073.78380
934.9568 6083.79837
935.1314 6056.68326
935.3059 6047.54932
935.4804 5998.50047
935.6549 6011.09548
935.8293 6003.27224
936.0038 5991.08682
936.1782 6018.95968
936.3526 6013.04105
936.5271 5922.00884
936.7015 5890.63395
936.8758 5903.61808
937.0502 5921.06677
937.2246 5900.40277
937.3989 5978.69661
937.5732 5899.29686
937.7475 5840.66352
937.9218 5806.27812
938.0961 5798.08625
938.2703 5793.19160
938.4446 5781.98921
938.6188 5777.97519
938.7930 5732.85844
938.9672 5685.91900
939.1414 5725.69055
939.3156 5644.01756
939.4897 5598.06114
939.6639 5553.06727
939.8380 5608.66962
940.0121 5586.83827
940.1862 5623.86555
940.3603 5622.71868
940.5344 5647.31479
940.7084 5648.99412
940.8824 5638.09893
941.0565 5629.31314
941.2305 5583.35672
941.4045 5490.82950
941.5784 5484.93135
941.7524 5496.97340
941.9263 5568.81615
942.1003 5573.03496
942.2742 5534.73795
942.4481 5434.16220
942.6220 5444.72972
942.7958 5436.90648
942.9697 5468.91623
943.1435 5449.15333
943.3174 5447.35112
943.4912 5427.05575
943.6650 5392.77275
943.8387 5367.52130
944.0125 5295.18704
944.1863 5311.14072
944.3600 5309.74810
944.5337 5291.25494
944.7074 5299.99977
944.8811 5279.45864
945.0548 5250.78708
945.2284 5172.02220
945.4021 5156.35524
945.5757 5206.46903
945.7493 5134.05286
945.9229 5053.34241
946.0965 5013.63230
946.2701 4985.20649
946.4436 5026.82122
946.6172 5031.26531
946.7907 5038.00313
946.9642 5015.08635
947.1377 5002.36847
947.3112 5018.58838
947.4847 5041.75091
947.6581 5068.25162
947.8315 5040.50165
948.0050 4961.28622
948.1784 4952.62331
948.3518 4975.82679
948.5251 4950.30910
948.6985 4991.06368
948.8718 4975.02809
949.0452 4912.81080
949.2185 4919.32334
949.3918 4884.03683
949.5651 4906.31873
949.7383 4839.24776
949.9116 4854.89424
950.0848 4862.10309
950.2581 4871.27799
950.4313 4888.68572
950.6045 4889.83259
950.7776 4897.51247
950.9508 4828.37304
951.1239 4803.75646
951.2971 4739.36832
951.4702 4740.28991
951.6433 4728.12497
951.8164 4706.58034
951.9895 4743.87385
952.1625 4683.43830
952.3356 4712.25322
952.5086 4652.45253
952.6816 4708.44399
952.8546 4675.59458
953.0276 4649.40105
953.2006 4662.73333
953.3735 4627.91786
953.5465 4644.50641
953.7194 4614.64702
953.8923 4592.97952
954.0652 4614.76990
954.2381 4570.90241
954.4109 4535.59543
954.5838 4518.18770
954.7566 4493.22296
954.9294 4450.83000
955.1022 4481.95913
955.2750 4476.49105
955.4478 4463.54789
955.6206 4486.17795
955.7933 4489.08606
955.9660 4477.88367
956.1388 4481.63145
956.3115 4428.75290
956.4841 4388.16216
956.6568 4349.04596
956.8295 4335.50888
957.0021 4319.51425
957.1747 4351.81072
957.3473 4317.50724
957.5199 4284.98550
957.6925 4323.50779
957.8651 4334.68970
958.0376 4349.25075
958.2102 4308.90577
958.3827 4336.55335
958.5552 4386.81050
958.7277 4354.32972
958.9001 4303.17146
959.0726 4234.48259
959.2450 4221.66230
959.4175 4218.09884
959.5899 4156.76217
959.7623 4149.55332
959.9347 4108.30723
960.1070 4086.25061
960.2794 4090.16223
960.4517 4076.70707
960.6241 4089.83455
960.7964 4140.46034
960.9687 4135.60665
961.1409 4128.62308
961.3132 4092.88603
961.4855 4030.21818
961.6577 4028.96892
961.8299 4045.33219
962.0021 4046.11042
962.1743 3998.59755
962.3465 3958.70311
962.5186 3959.19463
962.6908 3965.05182
962.8629 3957.49481
963.0350 3948.05368
963.2071 3937.58856
963.3792 3921.02049
963.5513 3879.18049
963.7233 3934.68044
963.8954 3915.98249
964.0674 3901.11423
964.2394 3895.44136
964.4114 3867.44563
964.5834 3865.99157
964.7553 3865.56150
964.9273 3886.75797
965.0992 3829.88588
965.2711 3848.62479
965.4430 3862.26427
965.6149 3841.04731
965.7868 3802.87317
965.9587 3784.46193
966.1305 3806.68239
966.3023 3810.69641
966.4741 3821.46873
966.6459 3787.67724
966.8177 3791.09735
966.9895 3771.80549
967.1613 3761.15605
967.3330 3751.89923
967.5047 3721.75313
967.6764 3716.63321
967.8481 3713.02878
968.0198 3697.52566
968.1915 3667.70723
968.3631 3672.58140
968.5347 3677.86516
968.7064 3661.99340
968.8780 3652.75706
969.0496 3671.33214
969.2211 3635.39029
969.3927 3656.52533
969.5642 3625.78531
969.7358 3594.82003
969.9073 3571.92374
970.0788 3617.08145
970.2503 3646.18308
970.4217 3615.79123
970.5932 3599.12076
970.7646 3582.92133
970.9360 3583.18756
971.1074 3588.73756
971.2788 3624.61797
971.4502 3608.70525
971.6216 3569.63001
971.7929 3531.04628
971.9643 3514.04814
972.1356 3529.63318
972.3069 3532.58226
972.4782 3514.78541
972.6494 3482.79614
972.8207 3491.29521
972.9919 3467.96884
973.1632 3443.96665
973.3344 3428.64784
973.5056 3390.84234
973.6768 3386.15249
973.8479 3448.77938
974.0191 3451.74893
974.1902 3443.61849
974.3614 3388.95821
974.5325 3421.88955
974.7036 3398.99325
974.8746 3377.67390
975.0457 3380.21338
975.2167 3355.04385
975.3878 3345.70511
975.5588 3340.21655
975.7298 3337.02172
975.9008 3315.88668
976.0718 3306.50699
976.2427 3305.56492
976.4137 3279.57620
976.5846 3274.43580
976.7555 3261.77935
976.9264 3258.15444
977.0973 3258.68692
977.2682 3285.14667
977.4390 3285.35147
977.6098 3308.61639
977.7807 3298.08983
977.9515 3307.14186
978.1223 3304.52046
978.2930 3260.50961
978.4638 3246.35814
978.6346 3201.11851
978.8053 3180.18827
978.9760 3184.83716
979.1467 3155.18258
979.3174 3167.40895
979.4881 3163.59973
979.6587 3171.48441
979.8294 3162.22759
980.0000 3148.36284
980.1706 3129.00953
980.3412 3100.11270
980.5118 3096.89738
980.6824 3089.19702
980.8529 3119.48648
981.0235 3124.11489
981.1940 3121.47301
981.3645 3106.87099
981.5350 3099.92838
981.7055 3067.63191
981.8759 3082.29537
982.0464 3089.40182
982.2168 3060.19778
982.3872 3073.81678
982.5576 3068.49206
982.7280 3059.68579
982.8984 3069.78228
983.0687 3059.52195
983.2391 3031.38286
983.4094 3026.67254
983.5797 3006.50004
983.7500 3001.56444
983.9203 2981.74010
984.0906 2989.41998
984.2608 2957.59455
984.4311 2981.76058
984.6013 2965.70451
984.7715 2999.22975
984.9417 2996.95651
985.1119 2993.41352
985.2820 2943.13589
985.4522 2939.87962
985.6223 2935.43553
985.7924 2939.69530
985.9625 2952.88422
986.1326 2973.34343
986.3027 2944.09844
986.4727 2933.38756
986.6428 2936.19328
986.8128 2929.76265
986.9828 2900.78390
987.1528 2896.58556
987.3228 2903.91729
987.4928 2931.36007
987.6627 2918.17115
987.8327 2887.14442
988.0026 2880.36565
988.1725 2869.06086
988.3424 2845.71402
988.5123 2848.31494
988.6821 2850.71106
988.8520 2840.20498
989.0218 2836.29336
989.1916 2854.58172
989.3614 2813.47899
989.5312 2807.15077
989.7010 2782.98473
989.8707 2781.73547
990.0405 2788.76001
990.2102 2790.95133
990.3799 2774.62902
990.5496 2765.84324
990.7193 2770.32829
990.8890 2767.91168
991.0586 2747.88255
991.2283 2757.77424
991.3979 2748.02591
991.5675 2763.71335
991.7371 2737.80654
991.9067 2721.01320
992.0762 2693.22226
992.2458 2709.25786
992.4153 2731.66264
992.5848 2731.21208
992.7543 2748.33310
992.9238 2720.03018
993.0933 2710.44568
993.2627 2704.09698
993.4322 2687.67227
993.6016 2706.55454
993.7710 2660.63908
993.9404 2680.17670
994.1098 2662.05218
994.2792 2665.88188
994.4485 2660.59812
994.6179 2652.09905
994.7872 2660.33189
994.9565 2661.15107
995.1258 2660.43428
995.2951 2647.34776
995.4643 2658.59111
995.6336 2657.21897
995.8028 2634.15885
995.9720 2619.18819
996.1412 2620.15074
996.3104 2623.07933
996.4796 2618.43045
996.6487 2632.99150
996.8179 2620.15074
996.9870 2621.93247
997.1561 2604.29946
997.3252 2590.74191
997.4943 2578.33122
997.6634 2582.77531
997.8324 2581.52605
998.0014 2579.27328
998.1705 2564.15927
998.3395 2533.23495
998.5085 2518.94012
998.6774 2526.12849
998.8464 2514.43459
999.0153 2517.75230
999.1843 2527.48015
999.3532 2519.41116
999.5221 2523.54805
999.6910 2538.37535
999.8599 2543.16759
1000.0287 2560.35005
1000.1976 2548.04176
1000.3664 2541.67258
1000.5352 2535.99970
1000.7040 2531.18698
1000.8728 2504.85010
1001.0415 2495.51136
1001.2103 2471.59109
1001.3790 2481.89237
1001.5478 2458.21785
1001.7165 2462.08851
1001.8851 2458.42265
1002.0538 2466.14349
1002.2225 2478.34938
1002.3911 2459.15992
1002.5598 2455.96508
1002.7284 2429.71013
1002.8970 2431.08226
1003.0656 2445.45900
1003.2341 2433.51935
1003.4027 2431.16418
1003.5712 2391.43359
1003.7398 2391.78174
1003.9083 2392.12990
1004.0768 2382.07437
1004.2453 2354.65207
1004.4137 2391.80222
1004.5822 2378.38803
1004.7506 2393.64540
1004.9190 2364.54376
1005.0874 2359.71055
1005.2558 2363.78601
1005.4242 2360.46830
1005.5926 2370.58527
1005.7609 2357.47827
1005.9292 2334.04950
1006.0976 2355.57366
1006.2659 2350.82237
1006.4342 2357.68306
1006.6024 2347.81185
1006.7707 2365.83398
1006.9389 2338.75983
1007.1071 2356.74100
1007.2754 2346.89027
1007.4436 2335.33972
1007.6117 2313.79509
1007.7799 2321.67977
1007.9481 2310.68218
1008.1162 2322.19177
1008.2843 2306.25857
1008.4524 2309.69916
1008.6205 2302.81798
1008.7886 2319.79564
1008.9566 2284.63202
1009.1247 2288.13405
1009.2927 2281.37575
1009.4607 2281.02759
1009.6287 2263.08739
1009.7967 2270.95159
1009.9647 2259.81064
1010.1327 2261.34661
1010.3006 2247.48187
1010.4685 2250.57430
1010.6364 2240.00678
1010.8043 2243.79552
1010.9722 2217.00809
1011.1401 2209.81972
1011.3079 2215.71787
1011.4758 2226.94074
1011.6436 2220.63300
1011.8114 2230.31989
1011.9792 2222.04609
1012.1470 2239.59719
1012.3147 2228.90679
1012.4825 2239.88390
1012.6502 2235.62413
1012.8179 2227.30937
1012.9856 2214.50957
1013.1533 2223.72543
1013.3210 2192.00239
1013.4886 2186.47288
1013.6563 2181.31200
1013.8239 2176.70407
1013.9915 2192.82158
1014.1591 2172.11662
1014.3267 2169.78193
1014.4942 2180.36993
1014.6618 2174.00075
1014.8293 2176.72455
1014.9969 2162.88028
1015.1644 2180.16513
1015.3319 2177.03174
1015.4993 2168.49171
1015.6668 2163.43323
1015.8342 2158.41570
1016.0017 2149.73232
1016.1691 2160.19744
1016.3365 2148.50354
1016.5039 2143.15834
1016.6712 2146.39413
1016.8386 2136.19524
1017.0059 2130.68621
1017.1733 2144.53048
1017.3406 2126.79507
1017.5079 2131.01388
1017.6752 2112.37737
1017.8424 2116.71906
1018.0097 2099.06557
1018.1769 2116.71906
1018.3441 2099.04509
1018.5113 2103.32535
1018.6785 2085.69233
1018.8457 2107.56464
1019.0129 2108.15855
1019.1800 2109.18254
1019.3471 2117.66113
1019.5142 2107.21649
1019.6813 2100.31483
1019.8484 2105.06612
1020.0155 2089.23532
1020.1826 2097.07904
1020.3496 2064.18866
1020.5166 2066.42095
1020.6836 2067.81357
1020.8506 2069.86154
1021.0176 2048.25547
1021.1846 2062.12021
1021.3515 2049.05417
1021.5185 2061.40342
1021.6854 2048.48074
1021.8523 2047.76395
1022.0192 2058.10620
1022.1861 2057.59420
1022.3529 2034.88223
1022.5198 2046.12558
1022.6866 2038.77337
1022.8534 2046.92429
1023.0202 2028.34921
1023.1870 2040.71894
1023.3538 2023.70032
1023.5205 2031.58500
1023.6873 2024.15087
1023.8540 2025.78925
1024.0207 2012.60033
1024.1874 2021.61139
1024.3541 2022.81969
1024.5207 2031.44164
1024.6874 2007.86952
1024.8540 2013.72671
1025.0206 1997.54776
1025.1872 2008.83207
1025.3538 1997.77304
1025.5204 1995.25403
1025.6870 1999.41141
1025.8535 1989.13061
1026.0201 1978.97268
1026.1866 1995.29499
1026.3531 1981.96272
1026.5196 1996.09370
1026.6860 1984.95275
1026.8525 1988.68005
1027.0189 1963.46956
1027.1853 1975.18394
1027.3518 1964.61642
1027.5181 1975.04058
1027.6845 1958.10388
1027.8509 1958.49300
1028.0172 1939.71312
1028.1836 1952.86108
1028.3499 1939.28305
1028.5162 1946.75813
1028.6825 1922.42827
1028.8488 1944.93544
1029.0150 1921.42476
1029.1813 1933.54874
1029.3475 1922.59210
1029.5137 1924.35336
1029.6799 1923.88232
1029.8461 1916.55060
1030.0123 1919.35631
1030.1784 1918.63952
1030.3446 1913.08953
1030.5107 1931.21405
1030.6768 1911.96315
1030.8429 1901.60042
1031.0090 1894.41205
1031.1750 1906.76130
1031.3411 1898.56943
1031.5071 1916.20244
1031.6732 1904.59046
1031.8392 1897.56592
1032.0051 1894.08438
1032.1711 1896.31666
1032.3371 1892.26169
1032.5030 1879.15469
1032.6690 1897.23825
1032.8349 1888.18623
1033.0008 1881.10026
1033.1667 1882.39048
1033.3325 1883.23014
1033.4984 1887.24416
1033.6642 1875.03827
1033.8300 1893.92054
1033.9959 1877.70063
1034.1616 1882.06280
1034.3274 1888.14527
1034.4932 1873.60469
1034.6589 1868.52573
1034.8247 1875.85746
1034.9904 1858.36780
1035.1561 1866.86687
1035.3218 1861.33736
1035.4875 1867.35839
1035.6531 1848.70139
1035.8188 1862.97573
1035.9844 1847.67741
1036.1500 1849.00859
1036.3156 1846.10047
1036.4812 1837.17133
1036.6468 1846.42815
1036.8123 1837.10989
1036.9779 1828.30362
1037.1434 1848.92667
1037.3089 1837.06893
1037.4744 1845.26080
1037.6399 1837.76524
1037.8053 1835.28720
1037.9708 1823.69569
1038.1362 1841.61542
1038.3016 1828.34458
1038.4670 1839.13738
1038.6324 1821.32005
1038.7978 1805.53021
1038.9632 1822.40547
1039.1285 1827.60731
1039.2938 1815.36046
1039.4592 1812.92338
1039.6245 1805.73501
1039.7897 1811.81747
1039.9550 1810.22006
1040.1203 1813.43537
1040.2855 1795.45420
1040.4507 1812.30899
1040.6159 1800.77892
1040.7811 1802.99073
1040.9463 1792.66897
1041.1115 1794.22542
1041.2766 1783.18687
1041.4418 1777.57544
1041.6069 1766.10681
1041.7720 1776.57193
1041.9371 1769.40404
1042.1021 1776.01898
1042.2672 1770.73522
1042.4323 1781.44610
1042.5973 1770.73522
1042.7623 1773.17230
1042.9273 1768.21622
1043.0923 1771.20625
1043.2572 1760.82305
1043.4222 1766.37305
1043.5871 1748.49428
1043.7521 1760.06530
1043.9170 1770.50994
1044.0819 1756.91143
1044.2467 1760.76161
1044.4116 1756.82951
1044.5765 1753.04077
1044.7413 1751.54575
1044.9061 1748.37140
1045.0709 1746.30295
1045.2357 1728.66994
1045.4005 1732.00813
1045.5652 1730.00112
1045.7300 1728.28083
1045.8947 1720.55999
1046.0594 1728.62898
1046.2241 1721.25630
1046.3888 1729.46865
1046.5535 1722.13692
1046.7181 1734.15850
1046.8828 1717.32420
1047.0474 1714.35464
1047.2120 1709.07088
1047.3766 1722.17788
1047.5412 1705.38454
1047.7057 1711.36461
1047.8703 1713.22826
1048.0348 1699.77310
1048.1993 1712.65483
1048.3639 1713.57641
1048.5283 1687.34193
1048.6928 1698.46240
1048.8573 1686.21555
1049.0217 1687.50577
1049.1861 1686.37939
1049.3506 1694.67366
1049.5150 1690.94636
1049.6793 1687.87440
1049.8437 1677.67552
1050.0081 1693.26056
1050.1724 1672.76040
1050.3367 1678.45375
1050.5010 1670.24139
1050.6653 1675.79139
1050.8296 1670.85578
1050.9939 1672.78087
1051.1581 1672.84231
1051.3224 1668.66446
1051.4866 1665.40819
1051.6508 1661.08697
1051.8150 1658.52701
1051.9791 1659.40764
1052.1433 1657.99454
1052.3074 1654.14436
1052.4716 1657.78974
1052.6357 1643.72020
1052.7998 1645.39953
1052.9639 1645.11282
1053.1279 1636.63423
1053.2920 1642.61430
1053.4560 1623.52723
1053.6201 1640.38201
1053.7841 1640.27961
1053.9481 1627.37741
1054.1120 1629.15914
1054.2760 1630.94087
1054.4399 1620.94679
1054.6039 1633.37796
1054.7678 1617.79291
1054.9317 1627.13165
1055.0956 1619.73848
1055.2595 1627.58220
1055.4233 1613.63554
1055.5872 1611.83333
1055.7510 1602.43315
1055.9148 1610.17447
1056.0786 1607.69643
1056.2424 1623.22003
1056.4062 1602.47411
1056.5699 1612.95971
1056.7336 1603.66193
1056.8974 1601.28629
1057.0611 1592.62338
1057.2248 1592.21378
1057.3885 1587.68777
1057.5521 1596.47356
1057.7158 1591.78371
1057.8794 1592.13187
1058.0430 1597.00603
1058.2066 1598.82872
1058.3702 1584.24719
1058.5338 1593.66784
1058.6973 1581.83058
1058.8609 1586.29515
1059.0244 1573.31103
1059.1879 1584.12431
1059.3514 1565.93835
1059.5149 1585.43501
1059.6784 1572.57376
1059.8418 1572.71712
1060.0053 1567.33096
1060.1687 1575.31804
1060.3321 1553.07710
1060.4955 1564.23853
1060.6589 1556.16953
1060.8222 1557.97175
1060.9856 1554.79740
1061.1489 1552.50367
1061.3122 1547.48615
1061.4755 1560.42931
1061.6388 1547.93670
1061.8021 1567.20809
1061.9654 1549.43172
1062.1286 1545.17194
1062.2918 1539.06900
1062.4550 1550.04611
1062.6182 1545.90921
1062.7814 1544.90571
1062.9446 1540.76881
1063.1077 1533.53948
1063.2709 1521.16975
1063.4340 1529.79170
1063.5971 1519.90001
1063.7602 1532.12638
1063.9233 1521.43598
1064.0863 1526.90406
1064.2494 1517.68820
1064.4124 1523.32012
1064.5754 1514.08378
1064.7384 1523.91403
1064.9014 1513.03931
1065.0644 1522.62381
1065.2274 1510.74559
1065.3903 1513.83802
1065.5532 1506.93637
1065.7162 1507.93987
1065.8790 1505.40039
1066.0419 1505.80998
1066.2048 1507.91939
1066.3677 1500.44430
1066.5305 1488.17697
1066.6933 1502.12364
1066.8561 1482.01259
1067.0189 1498.62161
1067.1817 1483.36425
1067.3445 1492.62106
1067.5072 1478.89967
1067.6699 1485.51461
1067.8327 1471.19931
1067.9954 1484.69543
1068.1580 1472.14138
1068.3207 1479.82126
1068.4834 1474.45558
1068.6460 1480.41517
1068.8086 1476.17587
1068.9713 1463.23271
1069.1339 1463.25319
1069.2964 1463.72422
1069.4590 1457.21168
1069.6216 1468.20928
1069.7841 1450.14619
1069.9466 1461.26666
1070.1091 1452.64471
1070.2716 1455.42995
1070.4341 1454.01685
1070.5966 1453.83254
1070.7590 1450.08475
1070.9214 1444.82147
1071.0839 1448.28254
1071.2463 1449.06077
1071.4086 1442.17959
1071.5710 1438.43181
1071.7334 1428.41724
1071.8957 1439.80395
1072.0580 1431.18200
1072.2204 1431.14104
1072.3827 1420.65544
1072.5449 1421.43367
1072.7072 1416.04751
1072.8695 1424.75138
1073.0317 1419.57002
1073.1939 1410.16984
1073.3561 1416.68238
1073.5183 1434.21300
1073.6805 1413.99954
1073.8427 1416.51855
1074.0048 1406.68830
1074.1669 1416.88718
1074.3291 1410.90711
1074.4912 1419.28330
1074.6532 1395.69070
1074.8153 1401.42502
1074.9774 1401.97797
1075.1394 1409.41209
1075.3014 1399.33609
1075.4635 1404.94752
1075.6255 1391.57429
1075.7874 1398.61930
1075.9494 1375.64109
1076.1114 1399.78664
1076.2733 1379.85990
1076.4352 1393.80657
1076.5971 1377.01323
1076.7590 1384.75455
1076.9209 1370.45973
1077.0828 1384.61119
1077.2446 1372.32338
1077.4064 1377.03371
1077.5683 1367.67449
1077.7301 1373.44976
1077.8918 1369.78390
1078.0536 1367.67449
1078.2154 1369.51766
1078.3771 1369.96822
1078.5388 1366.01564
1078.7006 1369.76342
1078.8623 1352.31472
1079.0239 1352.66288
1079.1856 1355.05900
1079.3473 1359.58501
1079.5089 1358.13096
1079.6705 1356.34922
1079.8321 1347.95255
1079.9937 1358.02856
1080.1553 1348.75126
1080.3169 1355.67339
1080.4784 1342.85311
1080.6399 1344.57340
1080.8014 1337.65127
1080.9629 1344.08189
1081.1244 1339.12581
1081.2859 1339.28964
1081.4474 1328.49685
1081.6088 1342.77119
1081.7702 1320.57121
1081.9316 1335.86954
1082.0930 1319.11715
1082.2544 1321.26752
1082.4158 1321.14464
1082.5771 1330.89297
1082.7385 1318.99427
1082.8998 1330.15570
1083.0611 1317.62213
1083.2224 1325.22010
1083.3837 1315.10313
1083.5449 1319.79298
1083.7062 1299.60001
1083.8674 1310.53616
1084.0286 1302.48765
1084.1898 1313.19852
1084.3510 1297.87972
1084.5122 1302.63100
1084.6734 1294.91016
1084.8345 1299.53857
1084.9956 1291.05998
1085.1567 1288.62290
1085.3178 1294.37769
1085.4789 1302.63100
1085.6400 1279.79615
1085.8010 1286.10390
1085.9621 1290.32271
1086.1231 1287.51699
1086.2841 1271.19468
1086.4451 1284.30168
1086.6061 1277.31811
1086.7670 1297.36772
1086.9280 1276.45796
1087.0889 1280.79966
1087.2498 1284.52696
1087.4107 1283.27770
1087.5716 1278.83361
1087.7325 1275.20870
1087.8933 1266.15668
1088.0542 1290.87566
1088.2150 1269.78158
1088.3758 1277.46147
1088.5366 1268.59376
1088.6974 1267.36498
1088.8582 1256.22403
1089.0189 1278.44449
1089.1796 1265.60373
1089.3404 1271.58380
1089.5011 1259.68510
1089.6618 1270.00686
1089.8224 1257.63713
1089.9831 1270.84653
1090.1438 1256.73602
1090.3044 1275.72069
1090.4650 1261.91738
1090.6256 1267.63122
1090.7862 1259.68510
1090.9468 1267.32402
1091.1073 1256.98178
1091.2679 1259.27550
1091.4284 1263.53528
1091.5889 1264.76406
1091.7494 1254.03270
1091.9099 1265.84948
1092.0703 1259.09119
1092.2308 1258.49728
1092.3912 1261.38491
1092.5516 1267.91793
1092.7121 1250.55116
1092.8724 1261.65115
1093.0328 1244.61205
1093.1932 1260.72956
1093.3535 1247.47920
1093.5139 1266.85299
1093.6742 1259.37790
1093.8345 1253.54119
1093.9948 1248.09360
1094.1550 1255.91684
1094.3153 1248.50319
1094.4755 1258.29248
1094.6358 1264.84598
1094.7960 1253.35687
1094.9562 1254.09414
1095.1163 1259.19359
1095.2765 1240.31131
1095.4367 1253.56167
1095.5968 1256.36739
1095.7569 1260.77052
1095.9170 1243.83382
1096.0771 1263.76056
1096.2372 1248.64655
1096.3973 1262.24506
1096.5573 1248.05264
1096.7173 1257.22754
1096.8773 1252.78344
1097.0374 1265.07126
1097.1973 1253.68455
1097.3573 1261.30299
1097.5173 1246.63954
1097.6772 1256.92034
1097.8371 1247.52016
1097.9970 1252.04617
1098.1569 1253.80743
1098.3168 1255.71204
1098.4767 1245.96371
1098.6365 1257.32993
1098.7964 1249.52717
1098.9562 1252.72200
1099.1160 1246.80338
1099.2758 1264.45687
1099.4356 1248.19599
1099.5953 1261.79451
1099.7551 1250.40780
1099.9148 1258.25152
1100.0745 1245.36980
1100.2342 1255.58916
1100.3939 1249.40430
1100.5536 1256.83842
1100.7132 1251.98474
1100.8729 1256.38787
1101.0325 1243.79286
1101.1921 1252.47625
1101.3517 1248.50319
1101.5113 1261.44635
1101.6709 1250.85835
1101.8304 1255.24101
1101.9899 1246.94673
1102.1495 1263.20760
1102.3090 1246.18898
1102.4685 1257.57569
1102.6279 1240.53659
1102.7874 1254.99525
1102.9468 1250.96075
1103.1063 1255.95780
1103.2657 1251.04267
1103.4251 1251.71850
1103.5845 1251.08363
1103.7438 1256.57219
1103.9032 1247.56112
1104.0625 1254.42182
1104.2219 1237.09600
1104.3812 1256.08067
1104.5405 1250.81739
1104.6997 1256.14211
1104.8590 1250.05965
1105.0183 1255.99875
1105.1775 1241.43770
1105.3367 1259.50078
1105.4959 1254.03270
1105.6551 1260.83196
1105.8143 1246.10707
1105.9735 1263.12569
1106.1326 1244.67349
1106.2917 1263.82200
1106.4508 1251.26795
1106.6099 1256.28547
1106.7690 1235.76482
1106.9281 1259.60318
1107.0872 1250.69452
1107.2462 1260.09469
1107.4052 1257.92385
1107.5642 1247.66352
1107.7232 1252.51721
1107.8822 1256.10115
1108.0412 1238.40670
1108.2001 1255.83492
1108.3591 1245.04212
1108.5180 1260.85244
1108.6769 1254.56518
1108.8358 1252.39433
1108.9947 1251.43178
1109.1535 1250.48972
1109.3124 1249.97773
1109.4712 1250.10060
1109.6300 1248.76942
1109.7888 1255.32292
1109.9476 1246.76242
1110.1064 1261.69211
1110.2651 1252.64009
1110.4239 1258.31296
1110.5826 1248.58511
1110.7413 1252.74248
1110.9000 1243.05559
1111.0587 1255.40484
1111.2173 1239.28733
1111.3760 1254.81093
1111.5346 1258.49728
1111.6932 1261.28251
1111.8518 1246.45522
1112.0104 1261.07772
1112.1690 1244.81685
1112.3276 1251.61610
1112.4861 1241.97017
1112.6446 1260.60668
1112.8032 1254.03270
1112.9617 1250.24396
1113.1201 1252.21001
1113.2786 1249.40430
1113.4371 1242.25688
1113.5955 1244.89876
1113.7539 1246.10707
1113.9123 1251.37035
1114.0707 1251.57514
1114.2291 1256.28547
1114.3875 1250.14156
1114.5458 1258.55872
1114.7042 1250.03917
1114.8625 1250.32588
1115.0208 1248.42127
1115.1791 1258.96831
1115.3374 1242.70744
1115.4956 1255.09765
1115.6539 1246.14802
1115.8121 1259.52126
1115.9703 1249.34286
1116.1285 1251.45226
1116.2867 1235.66242
1116.4449 1255.17957
1116.6030 1248.93326
1116.7612 1247.82736
1116.9193 1238.69342
1117.0774 1252.47625
1117.2355 1247.04913
1117.3936 1256.73602
1117.5516 1246.08659
1117.7097 1255.63012
1117.8677 1249.11758
1118.0257 1250.94027
1118.1837 1250.89931
1118.3417 1256.42883
1118.4997 1252.61961
1118.6577 1253.17256
1118.8156 1248.76942
1118.9735 1255.15909
1119.1315 1239.41021
1119.2894 1251.94378
1119.4472 1245.36980
1119.6051 1254.40134
1119.7630 1242.13401
1119.9208 1251.12459
1120.0786 1244.98068
1120.2364 1260.50429
1120.3942 1245.28788
1120.5520 1253.80743
1120.7098 1244.85780
1120.8675 1257.02274
1121.0253 1254.72901
1121.1830 1257.88289
1121.3407 1258.21056
1121.4984 1254.19654
1121.6560 1252.82440
